

 Wavenumbers:   820. - 50000. cm-1, ATM      1
 LEVEL PRESSURE   UPWARD FLUX   DIFDOWN FLUX  DIRDOWN FLUX  DOWNWARD FLUX   NET FLUX    HEATING RATE
          mb          W/m2          W/m2          W/m2        W/m2          W/m2       degree/day
  59    0.1000      955.7084        0.0000     1360.8491     1360.8491     405.140707       0.00000
  58    0.1400      955.7104        0.0069     1360.7700     1360.7769     405.066499      15.65647
  57    0.1970      955.7138        0.0167     1360.6656     1360.6822     404.968448      14.51696
  56    0.2760      955.7197        0.0302     1360.4973     1360.5275     404.807743      17.16724
  55    0.3870      955.7304        0.0490     1360.2162     1360.2652     404.534779      20.75296
  54    0.5430      955.7495        0.0753     1359.7485     1359.8238     404.074268      24.91231
  53    0.7620      955.7826        0.1121     1359.0015     1359.1136     403.330983      28.64241
  52     1.070      955.8381        0.1614     1357.8888     1358.0502     402.212095      30.65735
  51     1.500      955.9399        0.2301     1356.1988     1356.4288     400.488931      33.81868
  50     2.100      956.1089        0.3243     1354.0972     1354.4215     398.312619      30.61035
  49     2.950      956.3725        0.4558     1351.8433     1352.2991     395.926543      23.68994
  48     4.130      956.7562        0.6393     1349.6358     1350.2750     393.518860      17.21931
  47     5.800      957.2887        0.8954     1347.4520     1348.3473     391.058663      12.43231
  46     8.130      958.0079        1.2531     1345.1751     1346.4282     388.420308       9.55599
  45     11.41      958.9569        1.7528     1342.7079     1344.4607     385.503869       7.50374
  44     16.01      960.2000        2.4494     1339.9281     1342.3775     382.177498       6.10255
  43     22.46      961.8798        3.4189     1336.6282     1340.0471     378.167365       5.24684
  42     31.51      964.1812        4.7663     1332.6189     1337.3852     373.204052       4.62830
  41     44.20      967.2054        6.6424     1327.8040     1334.4464     367.241001       3.96557
  40     62.00      970.8900        9.2548     1322.1310     1331.3858     360.495790       3.19797
  39     85.77      974.3789       12.7345     1316.0883     1328.8228     354.443914       2.14862
  38     109.5      976.9900       16.2082     1310.8699     1327.0781     350.088042       1.54648
  37     133.3      979.0480       19.6494     1306.1391     1325.7885     346.740516       1.18798
  36     157.1      980.7087       23.0862     1301.7285     1324.8147     344.105991       0.93495
  35     180.9      982.0402       26.5062     1297.5383     1324.0446     342.004359       0.74615
  34     204.7      983.2412       29.8891     1293.4065     1323.2956     340.054441       0.69200
  33     228.4      984.3996       33.2567     1289.2005     1322.4572     338.057600       0.70895
  32     252.2      985.5124       36.5959     1284.8824     1321.4783     335.965932       0.74230
  31     276.0      986.5548       39.9145     1280.5653     1320.4798     333.924959       0.72461
  30     299.8      987.5244       43.2083     1276.2839     1319.4923     331.967839       0.69455
  29     323.5      988.4081       46.4664     1272.1283     1318.5947     330.186636       0.63239
  28     347.3      989.2508       49.7286     1267.8782     1317.6067     328.355940       0.64996
  27     371.1      990.0810       52.9478     1263.0375     1315.9853     325.904272       0.87006
  26     394.9      990.9195       56.1421     1257.3469     1313.4890     322.569488       1.18346
  25     418.6      991.7650       59.3349     1251.3901     1310.7250     318.959998       1.28149
  24     442.4      992.6038       62.4672     1245.4620     1307.9292     315.325360       1.29042
  23     466.2      993.4675       65.6149     1239.3762     1304.9911     311.523535       1.34921
  22     489.9      994.3554       68.7189     1233.1568     1301.8757     307.520313       1.42068
  21     513.7      995.2729       71.7719     1226.8116     1298.5835     303.310554       1.49461
  20     537.5      996.2531       74.8502     1220.1629     1295.0131     298.760067       1.61490
  19     561.3      997.2856       77.8846     1213.3419     1291.2265     293.940894       1.71097
  18     585.0      998.3788       80.8661     1206.3658     1287.2318     288.853087       1.80634
  17     608.8      999.5661       83.8582     1199.1415     1282.9997     283.433635       1.92328
  16     632.6     1000.8284       86.8290     1191.9457     1278.7747     277.946329       1.94736
  15     656.4     1002.1691       89.7671     1184.8126     1274.5798     272.410669       1.96534
  14     680.1     1003.5954       92.6654     1177.7612     1270.4266     266.831190       1.98090
  13     703.9     1005.1243       95.5711     1170.7810     1266.3521     261.227792       1.98856
  12     727.7     1006.7255       98.4419     1164.0452     1262.4871     255.761548       1.93988
  11     751.5     1008.4140      101.2895     1157.4888     1258.7783     250.364319       1.91620
  10     775.2     1010.1916      104.1036     1151.1183     1255.2219     245.030280       1.89297
   9     799.0     1012.0848      106.9208     1144.8574     1251.7783     239.693437       1.89476
   8     822.8     1014.0697      109.7073     1138.7985     1248.5058     234.436149       1.86573
   7     846.6     1016.1622      112.4718     1132.9030     1245.3748     229.212563       1.85455
   6     870.4     1018.3701      115.2095     1127.1604     1242.3699     223.999770       1.84994
   5     894.1     1020.7034      117.9182     1121.5673     1239.4855     218.782107       1.85245
   4     917.9     1023.1436      120.6284     1116.1582     1236.7866     213.642982       1.82456
   3     941.7     1025.6639      123.3196     1110.9747     1234.2943     208.630420       1.77888
   2     965.5     1028.2670      125.9955     1105.9959     1231.9914     203.724386       1.74107
   1     989.2     1030.9729      128.6523     1101.1905     1229.8428     198.869921       1.72277
   0    1013.0     1033.7941      131.3014     1096.5367     1227.8381     194.043991       1.71337

  Modules and versions used in this calculation:

       rrtmg_sw.1col.f90:  $Revision$                    rrtmg_sw_init.f90:  $Revision$        
     rrtmgsw_cldprop.f90:  $Revision$                  rrtmgsw_cldprmc.f90:  NOT USED          
     rrtmg_sw_reftra.f90:  $Revision$                  rrtmg_sw_spcvrt.f90:  NOT USED          
     rrtmg_sw_spcvmc.f90:  NOT USED                    rrtmgsw_setcoef.f90:  NOT USED          
     rrtmg_sw_taumol.f90:  $Revision$                  rrtmg_sw_vrtqdr.f90:  NOT USED          
                rrtatm.f:  NOT USED                             util_xxx.f:  NOT USED          
                 extra.f:  NOT USED                       rrtmg_sw_k_g.f90:  $Revision$        

