

 Wavenumbers:   820. - 50000. cm-1, ATM      1
 LEVEL PRESSURE   UPWARD FLUX   DIFDOWN FLUX  DIRDOWN FLUX  DOWNWARD FLUX   NET FLUX    HEATING RATE
          mb          W/m2          W/m2          W/m2        W/m2          W/m2       degree/day
  60   .000300      228.4957        0.0000      837.8224      837.8224     609.326701       0.00000
  59    0.1000      228.4903        0.0107      837.7137      837.7244     609.234081       7.83984
  58    0.1403      228.4884        0.0150      837.6563      837.6714     609.182989      10.69913
  57    0.1968      228.4858        0.0211      837.5614      837.5825     609.096650      12.89609
  56    0.2760      228.4826        0.0295      837.4070      837.4365     608.953926      15.20793
  55    0.3871      228.4785        0.0412      837.1641      837.2053     608.726803      17.25220
  54    0.5430      228.4734        0.0573      836.7876      836.8450     608.371561      19.22989
  53    0.7617      228.4679        0.0795      836.1942      836.2736     607.805735      21.83395
  52     1.069      228.4629        0.1097      835.2926      835.4023     606.939447      23.82899
  51     1.499      228.4610        0.1504      834.0471      834.1975     605.736449      23.59349
  50     2.102      228.4681        0.2050      832.4995      832.7046     604.236503      20.97127
  49     2.949      228.4951        0.2813      830.7483      831.0296     602.534489      16.96615
  48     4.137      228.5558        0.3873      828.8944      829.2817     600.725841      12.85235
  47     5.803      228.6575        0.5342      826.9459      827.4801     598.822672       9.64111
  46     8.139      228.7960        0.7385      824.8978      825.6364     596.840319       7.15940
  45     11.42      228.9595        1.0227      822.7006      823.7232     594.763702       5.34654
  44     16.01      229.1397        1.4170      820.2525      821.6694     592.529748       4.10046
  43     22.46      229.3262        1.9650      817.4463      819.4113     590.085186       3.19880
  42     31.51      229.4698        2.7267      814.2518      816.9785     587.508689       2.40352
  41     44.20      229.4749        3.7871      810.6480      814.4351     584.960175       1.69486
  40     62.00      229.2719        5.2491      806.4553      811.7045     582.432618       1.19835
  39     85.78      228.7284        7.1756      801.7674      808.9430     580.214593       0.78731
  38     109.5      228.0313        9.1040      797.4817      806.5857     578.554332       0.58932
  37     133.1      227.3214       10.9266      793.5510      804.4775     577.156170       0.50210
  36     156.8      226.6103       12.6688      789.8548      802.5236     575.913303       0.44072
  35     180.6      225.8260       14.4898      786.0084      800.4982     574.672154       0.44063
  34     202.8      225.0431       16.2148      782.2124      798.4272     573.384079       0.48906
  33     228.4      224.2316       17.9448      778.0467      795.9915     571.759867       0.53589
  32     252.2      223.4112       19.6497      773.4741      793.1238     569.712581       0.72670
  31     276.0      222.5943       21.3064      768.4389      789.7453     567.150977       0.90926
  30     299.8      221.7680       22.9479      762.7642      785.7121     563.944117       1.13830
  29     323.5      220.9420       24.5646      756.6288      781.1933     560.251326       1.31079
  28     347.3      220.1275       26.1394      750.2254      776.3648     556.237378       1.42479
  27     371.1      219.3280       27.6680      743.7251      771.3931     552.065136       1.48097
  26     394.9      218.5243       29.1916      736.8957      766.0873     547.563050       1.59805
  25     418.6      217.7319       30.6852      729.8721      760.5573     542.825449       1.68165
  24     442.4      216.9519       32.1517      722.6783      754.8300     537.878099       1.75611
  23     466.2      216.1829       33.5965      715.4381      749.0346     532.851699       1.78417
  22     489.9      215.4383       35.0004      708.2772      743.2776     527.839263       1.77921
  21     513.7      214.7093       36.3880      701.0441      737.4321     522.722792       1.81614
  20     537.5      214.0116       37.7387      693.8325      731.5711     517.559491       1.83276
  19     561.3      213.3486       39.0553      686.6319      725.6873     512.338637       1.85319
  18     585.0      212.7087       40.3669      679.3701      719.7370     507.028266       1.88496
  17     608.8      212.1106       41.6428      672.2525      713.8953     501.784699       1.86125
  16     632.6      211.5594       42.8842      665.2624      708.1466     496.587177       1.84491
  15     656.4      211.0559       44.1168      658.1915      702.3082     491.252337       1.89365
  14     680.1      210.6270       45.3158      651.1209      696.4367     485.809689       1.93192
  13     703.9      210.2876       46.4822      644.0582      690.5404     480.252759       1.97248
  12     727.7      210.0566       47.6336      636.8758      684.5094     474.452847       2.05873
  11     751.5      209.9783       48.7692      629.4911      678.2603     468.281964       2.19041
  10     775.2      210.1048       49.8750      621.9804      671.8553     461.750542       2.31839
   9     799.0      210.5074       50.9510      614.3441      665.2952     454.787813       2.47148
   8     822.8      164.3778      117.0723      495.1297      612.2020     447.824164       2.47181
   7     846.6      119.3816      161.9754      399.1789      561.1543     441.772691       2.14802
   6     870.4       75.2588      189.9620      321.9350      511.8969     436.638130       1.82256
   5     894.1       31.7665      204.4295      259.7186      464.1481     432.381524       1.51092
   4     917.9       31.0601      202.9244      256.7349      459.6593     428.599159       1.34258
   3     941.7       30.3650      201.4626      253.8089      455.2715     424.906537       1.31073
   2     965.5       29.6890      200.0465      250.9564      451.0029     421.313851       1.27526
   1     989.2       29.0353      198.6713      248.1749      446.8462     417.810897       1.24314
   0    1013.0       28.4084      197.3323      245.4585      442.7909     414.382507       1.21719



 Wavenumbers:  2600. -  3250. cm-1, ATM      1
 LEVEL PRESSURE   UPWARD FLUX   DIFDOWN FLUX  DIRDOWN FLUX  DOWNWARD FLUX   NET FLUX    HEATING RATE
          mb          W/m2          W/m2          W/m2        W/m2          W/m2       degree/day
  60   .000300        0.8667        0.0000        7.3841        7.3841       6.517367       0.00000
  59    0.1000        0.8667        0.0000        7.3840        7.3840       6.517294       0.00613
  58    0.1403        0.8667        0.0000        7.3840        7.3840       6.517265       0.00614
  57    0.1968        0.8667        0.0000        7.3839        7.3839       6.517224       0.00616
  56    0.2760        0.8667        0.0000        7.3839        7.3839       6.517166       0.00613
  55    0.3871        0.8667        0.0000        7.3838        7.3838       6.517082       0.00641
  54    0.5430        0.8667        0.0000        7.3837        7.3837       6.516957       0.00678
  53    0.7617        0.8667        0.0000        7.3835        7.3835       6.516759       0.00761
  52     1.069        0.8667        0.0000        7.3831        7.3831       6.516429       0.00908
  51     1.499        0.8667        0.0000        7.3825        7.3825       6.515821       0.01193
  50     2.102        0.8667        0.0000        7.3814        7.3814       6.514732       0.01522
  49     2.949        0.8667        0.0000        7.3795        7.3795       6.512846       0.01880
  48     4.137        0.8667        0.0000        7.3765        7.3765       6.509832       0.02142
  47     5.803        0.8667        0.0000        7.3721        7.3721       6.505402       0.02245
  46     8.139        0.8667        0.0000        7.3661        7.3661       6.499394       0.02170
  45     11.42        0.8667        0.0000        7.3586        7.3586       6.491888       0.01933
  44     16.01        0.8667        0.0000        7.3500        7.3500       6.483312       0.01574
  43     22.46        0.8667        0.0000        7.3407        7.3407       6.473995       0.01219
  42     31.51        0.8667        0.0000        7.3297        7.3297       6.463030       0.01023
  41     44.20        0.8667        0.0000        7.3134        7.3134       6.446676       0.01088
  40     62.00        0.8668        0.0000        7.2860        7.2860       6.419262       0.01300
  39     85.78        0.8668        0.0000        7.2438        7.2439       6.377055       0.01498
  38     109.5        0.8669        0.0000        7.1969        7.1970       6.330037       0.01669
  37     133.1        0.8670        0.0001        7.1517        7.1518       6.284776       0.01625
  36     156.8        0.8671        0.0001        7.1092        7.1093       6.242152       0.01511
  35     180.6        0.8673        0.0001        7.0662        7.0663       6.198973       0.01533
  34     202.8        0.8675        0.0001        7.0262        7.0262       6.158747       0.01527
  33     228.4        0.8678        0.0001        6.9846        6.9847       6.116938       0.01379
  32     252.2        0.8682        0.0001        6.9407        6.9408       6.072590       0.01574
  31     276.0        0.8687        0.0001        6.8941        6.8942       6.025515       0.01671
  30     299.8        0.8694        0.0001        6.8424        6.8426       5.973136       0.01859
  29     323.5        0.8703        0.0001        6.7849        6.7851       5.914716       0.02074
  28     347.3        0.8715        0.0001        6.7206        6.7207       5.849263       0.02323
  27     371.1        0.8729        0.0001        6.6496        6.6497       5.776843       0.02571
  26     394.9        0.8746        0.0001        6.5676        6.5677       5.693141       0.02971
  25     418.6        0.8767        0.0002        6.4741        6.4743       5.597621       0.03391
  24     442.4        0.8791        0.0002        6.3671        6.3673       5.488154       0.03886
  23     466.2        0.8821        0.0002        6.2486        6.2487       5.366636       0.04313
  22     489.9        0.8855        0.0002        6.1205        6.1206       5.235134       0.04668
  21     513.7        0.8896        0.0002        5.9812        5.9814       5.091758       0.05089
  20     537.5        0.8944        0.0002        5.8338        5.8340       4.939557       0.05403
  19     561.3        0.9001        0.0002        5.6819        5.6821       4.781929       0.05595
  18     585.0        0.9068        0.0002        5.5274        5.5276       4.620813       0.05719
  17     608.8        0.9144        0.0002        5.3761        5.3763       4.461818       0.05644
  16     632.6        0.9232        0.0002        5.2281        5.2283       4.305096       0.05563
  15     656.4        0.9336        0.0002        5.0791        5.0793       4.145699       0.05658
  14     680.1        0.9459        0.0002        4.9299        4.9301       3.984175       0.05733
  13     703.9        0.9606        0.0002        4.7798        4.7800       3.819409       0.05849
  12     727.7        0.9785        0.0002        4.6253        4.6255       3.646936       0.06122
  11     751.5        1.0011        0.0002        4.4633        4.4635       3.462323       0.06553
  10     775.2        1.0297        0.0002        4.2949        4.2950       3.265342       0.06992
   9     799.0        1.0664        0.0002        4.1205        4.1207       3.054271       0.07492
   8     822.8        0.8006        0.4255        3.2180        3.6435       2.842916       0.07502
   7     846.6        0.5495        0.6958        2.5135        3.2094       2.659901       0.06496
   6     870.4        0.3087        0.8499        1.9649        2.8148       2.506090       0.05460
   5     894.1        0.0741        0.9176        1.5372        2.4548       2.380685       0.04451
   4     917.9        0.0762        0.8743        1.4737        2.3480       2.271768       0.03866
   3     941.7        0.0786        0.8336        1.4128        2.2464       2.167755       0.03692
   2     965.5        0.0814        0.7952        1.3547        2.1500       2.068514       0.03523
   1     989.2        0.0847        0.7590        1.2995        2.0585       1.973755       0.03363
   0    1013.0        0.0887        0.7247        1.2466        1.9712       1.882560       0.03238



 Wavenumbers:  3250. -  4000. cm-1, ATM      1
 LEVEL PRESSURE   UPWARD FLUX   DIFDOWN FLUX  DIRDOWN FLUX  DOWNWARD FLUX   NET FLUX    HEATING RATE
          mb          W/m2          W/m2          W/m2        W/m2          W/m2       degree/day
  60   .000300        0.0090        0.0000       12.4485       12.4485      12.439511       0.00000
  59    0.1000        0.0090        0.0000       12.4290       12.4290      12.420008       1.65079
  58    0.1403        0.0090        0.0000       12.4252       12.4252      12.416294       0.77776
  57    0.1968        0.0090        0.0000       12.4208       12.4208      12.411822       0.66803
  56    0.2760        0.0090        0.0000       12.4156       12.4156      12.406659       0.55013
  55    0.3871        0.0090        0.0000       12.4096       12.4096      12.400626       0.45825
  54    0.5430        0.0090        0.0000       12.4022       12.4022      12.393298       0.39669
  53    0.7617        0.0090        0.0000       12.3928       12.3928      12.383837       0.36506
  52     1.069        0.0089        0.0000       12.3807       12.3807      12.371797       0.33119
  51     1.499        0.0089        0.0000       12.3664       12.3664      12.357440       0.28159
  50     2.102        0.0089        0.0000       12.3498       12.3498      12.340806       0.23256
  49     2.949        0.0089        0.0000       12.3302       12.3302      12.321271       0.19473
  48     4.137        0.0089        0.0000       12.3067       12.3068      12.297806       0.16675
  47     5.803        0.0089        0.0000       12.2766       12.2766      12.267688       0.15257
  46     8.139        0.0089        0.0000       12.2347       12.2348      12.225820       0.15121
  45     11.42        0.0089        0.0000       12.1733       12.1733      12.164406       0.15812
  44     16.01        0.0089        0.0000       12.0830       12.0830      12.074096       0.16577
  43     22.46        0.0089        0.0000       11.9527       11.9527      11.943805       0.17049
  42     31.51        0.0089        0.0000       11.7748       11.7748      11.765921       0.16594
  41     44.20        0.0089        0.0001       11.5551       11.5552      11.546284       0.14607
  40     62.00        0.0089        0.0001       11.3050       11.3051      11.296216       0.11856
  39     85.78        0.0088        0.0001       11.0142       11.0143      11.005428       0.10322
  38     109.5        0.0088        0.0001       10.7175       10.7176      10.708808       0.10529
  37     133.1        0.0088        0.0002       10.4459       10.4460      10.437261       0.09752
  36     156.8        0.0088        0.0002       10.1944       10.1946      10.185873       0.08914
  35     180.6        0.0087        0.0002        9.9218        9.9220       9.913315       0.09676
  34     202.8        0.0087        0.0002        9.5970        9.5973       9.588544       0.12331
  33     228.4        0.0087        0.0002        9.1820        9.1823       9.173606       0.13690
  32     252.2        0.0087        0.0003        8.7004        8.7006       8.691962       0.17096
  31     276.0        0.0087        0.0003        8.1693        8.1695       8.160883       0.18851
  30     299.8        0.0086        0.0003        7.5886        7.5889       7.580221       0.20611
  29     323.5        0.0087        0.0003        6.9823        6.9825       6.973874       0.21523
  28     347.3        0.0087        0.0003        6.3629        6.3631       6.354435       0.21988
  27     371.1        0.0087        0.0002        5.7699        5.7701       5.761421       0.21050
  26     394.9        0.0088        0.0002        5.2041        5.2043       5.195525       0.20087
  25     418.6        0.0088        0.0002        4.6962        4.6964       4.687531       0.18032
  24     442.4        0.0090        0.0002        4.2409        4.2411       4.232144       0.16164
  23     466.2        0.0091        0.0002        3.8328        3.8330       3.823832       0.14493
  22     489.9        0.0093        0.0002        3.4648        3.4650       3.455700       0.13067
  21     513.7        0.0096        0.0002        3.1218        3.1220       3.112375       0.12187
  20     537.5        0.0100        0.0002        2.8040        2.8042       2.794199       0.11294
  19     561.3        0.0104        0.0002        2.5083        2.5084       2.497969       0.10515
  18     585.0        0.0111        0.0001        2.2301        2.2302       2.219159       0.09897
  17     608.8        0.0118        0.0001        1.9731        1.9732       1.961355       0.09151
  16     632.6        0.0129        0.0001        1.7337        1.7338       1.720995       0.08532
  15     656.4        0.0142        0.0001        1.5041        1.5042       1.490030       0.08198
  14     680.1        0.0160        0.0001        1.2888        1.2888       1.272851       0.07709
  13     703.9        0.0185        0.0001        1.0908        1.0909       1.072383       0.07116
  12     727.7        0.0220        0.0001        0.9082        0.9083       0.886261       0.06607
  11     751.5        0.0273        0.0001        0.7390        0.7391       0.711801       0.06193
  10     775.2        0.0354        0.0000        0.5856        0.5857       0.550261       0.05734
   9     799.0        0.0486        0.0000        0.4484        0.4484       0.399869       0.05338
   8     822.8        0.0293        0.0306        0.2687        0.2993       0.269987       0.04610
   7     846.6        0.0163        0.0362        0.1567        0.1929       0.176618       0.03314
   6     870.4        0.0072        0.0309        0.0888        0.1197       0.112510       0.02276
   5     894.1        0.0000        0.0225        0.0487        0.0713       0.071258       0.01464
   4     917.9        0.0000        0.0131        0.0315        0.0446       0.044627       0.00945
   3     941.7        0.0000        0.0073        0.0194        0.0267       0.026658       0.00638
   2     965.5        0.0000        0.0038        0.0114        0.0152       0.015181       0.00407
   1     989.2        0.0001        0.0019        0.0064        0.0083       0.008192       0.00248
   0    1013.0        0.0002        0.0009        0.0034        0.0043       0.004098       0.00145



 Wavenumbers:  4000. -  4650. cm-1, ATM      1
 LEVEL PRESSURE   UPWARD FLUX   DIFDOWN FLUX  DIRDOWN FLUX  DOWNWARD FLUX   NET FLUX    HEATING RATE
          mb          W/m2          W/m2          W/m2        W/m2          W/m2       degree/day
  60   .000300        2.9761        0.0000       14.6183       14.6183      11.642135       0.00000
  59    0.1000        2.9761        0.0000       14.6182       14.6182      11.642126       0.00076
  58    0.1403        2.9761        0.0000       14.6182       14.6182      11.642122       0.00076
  57    0.1968        2.9761        0.0000       14.6182       14.6182      11.642117       0.00077
  56    0.2760        2.9761        0.0000       14.6182       14.6182      11.642110       0.00076
  55    0.3871        2.9761        0.0000       14.6182       14.6182      11.642100       0.00080
  54    0.5430        2.9761        0.0000       14.6182       14.6182      11.642084       0.00085
  53    0.7617        2.9761        0.0000       14.6182       14.6182      11.642059       0.00095
  52     1.069        2.9761        0.0000       14.6181       14.6181      11.642018       0.00114
  51     1.499        2.9761        0.0000       14.6180       14.6181      11.641941       0.00152
  50     2.102        2.9761        0.0000       14.6179       14.6179      11.641799       0.00197
  49     2.949        2.9761        0.0000       14.6176       14.6177      11.641546       0.00252
  48     4.137        2.9761        0.0000       14.6172       14.6172      11.641117       0.00305
  47     5.803        2.9761        0.0000       14.6165       14.6165      11.640425       0.00351
  46     8.139        2.9761        0.0000       14.6154       14.6154      11.639343       0.00391
  45     11.42        2.9761        0.0000       14.6137       14.6138      11.637673       0.00430
  44     16.01        2.9761        0.0001       14.6112       14.6112      11.635142       0.00465
  43     22.46        2.9761        0.0001       14.6074       14.6074      11.631367       0.00494
  42     31.51        2.9761        0.0001       14.6017       14.6018      11.625718       0.00527
  41     44.20        2.9761        0.0002       14.5927       14.5929      11.616793       0.00594
  40     62.00        2.9761        0.0003       14.5788       14.5791      11.602929       0.00657
  39     85.78        2.9763        0.0004       14.5592       14.5596      11.583347       0.00695
  38     109.5        2.9765        0.0005       14.5382       14.5386      11.562160       0.00752
  37     133.1        2.9767        0.0006       14.5177       14.5183      11.541548       0.00740
  36     156.8        2.9770        0.0006       14.4977       14.4983      11.521287       0.00718
  35     180.6        2.9774        0.0007       14.4759       14.4766      11.499212       0.00784
  34     202.8        2.9779        0.0008       14.4536       14.4545      11.476529       0.00861
  33     228.4        2.9786        0.0009       14.4280       14.4290      11.450372       0.00863
  32     252.2        2.9795        0.0010       14.3983       14.3994      11.419867       0.01083
  31     276.0        2.9806        0.0011       14.3635       14.3647      11.384052       0.01271
  30     299.8        2.9821        0.0012       14.3217       14.3229      11.340813       0.01535
  29     323.5        2.9840        0.0013       14.2720       14.2733      11.289386       0.01825
  28     347.3        2.9863        0.0014       14.2129       14.2143      11.228039       0.02178
  27     371.1        2.9889        0.0015       14.1438       14.1452      11.156381       0.02544
  26     394.9        2.9918        0.0016       14.0605       14.0620      11.070217       0.03058
  25     418.6        2.9952        0.0017       13.9639       13.9656      10.970460       0.03541
  24     442.4        2.9989        0.0018       13.8548       13.8565      10.857618       0.04005
  23     466.2        3.0031        0.0018       13.7365       13.7383      10.735199       0.04345
  22     489.9        3.0079        0.0019       13.6136       13.6155      10.607633       0.04528
  21     513.7        3.0134        0.0020       13.4859       13.4879      10.474518       0.04725
  20     537.5        3.0197        0.0021       13.3568       13.3588      10.339085       0.04807
  19     561.3        3.0271        0.0021       13.2261       13.2282      10.201168       0.04896
  18     585.0        3.0356        0.0022       13.0915       13.0937      10.058059       0.05080
  17     608.8        3.0455        0.0023       12.9542       12.9565       9.911003       0.05220
  16     632.6        3.0567        0.0023       12.8109       12.8133       9.756543       0.05483
  15     656.4        3.0701        0.0024       12.6541       12.6565       9.586374       0.06040
  14     680.1        3.0860        0.0024       12.4832       12.4857       9.399664       0.06627
  13     703.9        3.1051        0.0025       12.2977       12.3002       9.195150       0.07259
  12     727.7        3.1285        0.0025       12.0950       12.0975       8.969024       0.08027
  11     751.5        3.1583        0.0026       11.8732       11.8758       8.717544       0.08927
  10     775.2        3.1964        0.0026       11.6374       11.6400       8.443657       0.09722
   9     799.0        3.2462        0.0026       11.3910       11.3937       8.147426       0.10515
   8     822.8        2.4703        1.2275        9.0930       10.3205       7.850213       0.10550
   7     846.6        1.7230        2.0532        7.2655        9.3187       7.595716       0.09034
   6     870.4        0.9965        2.5692        5.8102        8.3794       7.382924       0.07553
   5     894.1        0.2837        2.8426        4.6504        7.4929       7.209245       0.06165
   4     917.9        0.2871        2.7817        4.5618        7.3435       7.056440       0.05424
   3     941.7        0.2910        2.7232        4.4756        7.1988       6.907796       0.05276
   2     965.5        0.2955        2.6664        4.3916        7.0580       6.762461       0.05159
   1     989.2        0.3008        2.6109        4.3094        6.9203       6.619513       0.05073
   0    1013.0        0.3070        2.5564        4.2282        6.7846       6.477598       0.05038



 Wavenumbers:  4650. -  5150. cm-1, ATM      1
 LEVEL PRESSURE   UPWARD FLUX   DIFDOWN FLUX  DIRDOWN FLUX  DOWNWARD FLUX   NET FLUX    HEATING RATE
          mb          W/m2          W/m2          W/m2        W/m2          W/m2       degree/day
  60   .000300        2.1833        0.0000       13.8369       13.8369      11.653564       0.00000
  59    0.1000        2.1833        0.0000       13.8347       13.8347      11.651446       0.17928
  58    0.1403        2.1833        0.0000       13.8339       13.8339      11.650607       0.17564
  57    0.1968        2.1833        0.0000       13.8327       13.8327      11.649442       0.17409
  56    0.2760        2.1833        0.0000       13.8312       13.8312      11.647852       0.16936
  55    0.3871        2.1833        0.0000       13.8290       13.8290      11.645672       0.16558
  54    0.5430        2.1833        0.0000       13.8260       13.8260      11.642737       0.15891
  53    0.7617        2.1833        0.0000       13.8221       13.8221      11.638833       0.15065
  52     1.069        2.1833        0.0000       13.8170       13.8170      11.633680       0.14174
  51     1.499        2.1833        0.0000       13.8105       13.8105      11.627196       0.12716
  50     2.102        2.1833        0.0000       13.8026       13.8026      11.619325       0.11005
  49     2.949        2.1833        0.0000       13.7933       13.7933      11.610027       0.09269
  48     4.137        2.1833        0.0000       13.7830       13.7831      11.599783       0.07279
  47     5.803        2.1833        0.0000       13.7724       13.7724      11.589135       0.05394
  46     8.139        2.1833        0.0001       13.7615       13.7616      11.578306       0.03911
  45     11.42        2.1833        0.0001       13.7497       13.7498      11.566533       0.03031
  44     16.01        2.1833        0.0001       13.7347       13.7348      11.551499       0.02760
  43     22.46        2.1833        0.0001       13.7122       13.7123      11.528998       0.02944
  42     31.51        2.1834        0.0002       13.6758       13.6760      11.492670       0.03389
  41     44.20        2.1835        0.0003       13.6167       13.6170      11.433534       0.03933
  40     62.00        2.1837        0.0004       13.5244       13.5248      11.341101       0.04382
  39     85.78        2.1841        0.0005       13.3944       13.3950      11.210848       0.04623
  38     109.5        2.1847        0.0007       13.2650       13.2657      11.081023       0.04608
  37     133.1        2.1854        0.0008       13.1487       13.1495      10.964174       0.04196
  36     156.8        2.1862        0.0009       13.0449       13.0458      10.859600       0.03708
  35     180.6        2.1872        0.0011       12.9437       12.9447      10.757498       0.03625
  34     202.8        2.1884        0.0012       12.8534       12.8546      10.666193       0.03467
  33     228.4        2.1899        0.0013       12.7658       12.7671      10.577252       0.02934
  32     252.2        2.1916        0.0015       12.6801       12.6816      10.490032       0.03096
  31     276.0        2.1936        0.0016       12.5950       12.5966      10.403020       0.03089
  30     299.8        2.1961        0.0017       12.5053       12.5070      10.310900       0.03270
  29     323.5        2.1992        0.0018       12.4093       12.4111      10.211927       0.03513
  28     347.3        2.2028        0.0020       12.3075       12.3094      10.106677       0.03736
  27     371.1        2.2069        0.0021       12.1993       12.2014       9.994489       0.03982
  26     394.9        2.2117        0.0022       12.0815       12.0837       9.871996       0.04348
  25     418.6        2.2173        0.0023       11.9549       11.9571       9.739874       0.04690
  24     442.4        2.2236        0.0024       11.8185       11.8209       9.597311       0.05060
  23     466.2        2.2308        0.0025       11.6730       11.6755       9.444660       0.05418
  22     489.9        2.2389        0.0026       11.5203       11.5229       9.283931       0.05705
  21     513.7        2.2482        0.0027       11.3577       11.3603       9.112163       0.06097
  20     537.5        2.2586        0.0028       11.1878       11.1906       8.932004       0.06395
  19     561.3        2.2704        0.0028       11.0105       11.0133       8.742959       0.06710
  18     585.0        2.2838        0.0029       10.8249       10.8278       8.543968       0.07063
  17     608.8        2.2988        0.0030       10.6366       10.6396       8.340752       0.07213
  16     632.6        2.3157        0.0030       10.4463       10.4494       8.133737       0.07348
  15     656.4        2.3351        0.0031       10.2497       10.2528       7.917712       0.07668
  14     680.1        2.3572        0.0032       10.0509       10.0541       7.696915       0.07837
  13     703.9        2.3824        0.0032        9.8514        9.8546       7.472194       0.07977
  12     727.7        2.4119        0.0033        9.6483        9.6516       7.239684       0.08253
  11     751.5        2.4471        0.0033        9.4402        9.4435       6.996461       0.08633
  10     775.2        2.4890        0.0033        9.2294        9.2327       6.743712       0.08972
   9     799.0        2.5398        0.0034        9.0169        9.0202       6.480489       0.09343
   8     822.8        1.9317        0.9688        7.1893        8.1581       6.226421       0.09018
   7     846.6        1.3456        1.6168        5.7361        7.3529       6.007270       0.07779
   6     870.4        0.7755        2.0184        4.5792        6.5976       5.822055       0.06574
   5     894.1        0.2157        2.2273        3.6573        5.8845       5.668865       0.05438
   4     917.9        0.2191        2.1724        3.5793        5.7517       5.532628       0.04836
   3     941.7        0.2229        2.1193        3.5031        5.6224       5.399496       0.04726
   2     965.5        0.2272        2.0681        3.4289        5.4969       5.269729       0.04606
   1     989.2        0.2321        2.0186        3.3564        5.3750       5.142901       0.04501
   0    1013.0        0.2376        1.9708        3.2856        5.2563       5.018757       0.04408



 Wavenumbers:  5150. -  6150. cm-1, ATM      1
 LEVEL PRESSURE   UPWARD FLUX   DIFDOWN FLUX  DIRDOWN FLUX  DOWNWARD FLUX   NET FLUX    HEATING RATE
          mb          W/m2          W/m2          W/m2        W/m2          W/m2       degree/day
  60   .000300        5.1179        0.0000       34.6891       34.6891      29.571170       0.00000
  59    0.1000        5.1179        0.0000       34.6886       34.6886      29.570674       0.04200
  58    0.1403        5.1179        0.0000       34.6884       34.6884      29.570474       0.04193
  57    0.1968        5.1179        0.0000       34.6881       34.6881      29.570192       0.04209
  56    0.2760        5.1179        0.0000       34.6877       34.6877      29.569801       0.04166
  55    0.3871        5.1179        0.0000       34.6871       34.6871      29.569251       0.04176
  54    0.5430        5.1179        0.0000       34.6864       34.6864      29.568485       0.04146
  53    0.7617        5.1179        0.0000       34.6853       34.6853      29.567416       0.04127
  52     1.069        5.1179        0.0000       34.6838       34.6838      29.565909       0.04145
  51     1.499        5.1179        0.0000       34.6817       34.6817      29.563818       0.04101
  50     2.102        5.1179        0.0001       34.6787       34.6788      29.560928       0.04041
  49     2.949        5.1179        0.0001       34.6746       34.6747      29.556846       0.04068
  48     4.137        5.1179        0.0001       34.6689       34.6690      29.551169       0.04034
  47     5.803        5.1178        0.0002       34.6610       34.6612      29.543342       0.03965
  46     8.139        5.1178        0.0002       34.6502       34.6504      29.532615       0.03874
  45     11.42        5.1178        0.0003       34.6356       34.6359      29.518050       0.03750
  44     16.01        5.1178        0.0005       34.6159       34.6163      29.498524       0.03584
  43     22.46        5.1178        0.0006       34.5899       34.5906      29.472726       0.03376
  42     31.51        5.1178        0.0009       34.5564       34.5573      29.439411       0.03108
  41     44.20        5.1179        0.0012       34.5139       34.5152      29.397259       0.02803
  40     62.00        5.1181        0.0017       34.4619       34.4636      29.345518       0.02453
  39     85.78        5.1184        0.0024       34.4020       34.4044      29.286020       0.02112
  38     109.5        5.1187        0.0031       34.3491       34.3522      29.233482       0.01865
  37     133.1        5.1191        0.0037       34.3031       34.3068      29.187792       0.01641
  36     156.8        5.1194        0.0043       34.2595       34.2638      29.144445       0.01537
  35     180.6        5.1198        0.0050       34.2031       34.2081      29.088294       0.01993
  34     202.8        5.1202        0.0056       34.1091       34.1148      28.994609       0.03557
  33     228.4        5.1206        0.0063       33.9252       33.9315      28.810854       0.06063
  32     252.2        5.1211        0.0069       33.6087       33.6155      28.494368       0.11234
  31     276.0        5.1217        0.0074       33.1225       33.1299      28.008187       0.17257
  30     299.8        5.1225        0.0079       32.4763       32.4842      27.361739       0.22946
  29     323.5        5.1234        0.0083       31.7610       31.7693      26.645886       0.25410
  28     347.3        5.1246        0.0088       31.0137       31.0225      25.897855       0.26552
  27     371.1        5.1261        0.0091       30.2247       30.2338      25.107703       0.28047
  26     394.9        5.1280        0.0095       29.3520       29.3614      24.233469       0.31032
  25     418.6        5.1302        0.0097       28.4400       28.4498      23.319518       0.32441
  24     442.4        5.1330        0.0100       27.5194       27.5294      22.396385       0.32767
  23     466.2        5.1364        0.0102       26.6227       26.6330      21.496598       0.31939
  22     489.9        5.1404        0.0104       25.7669       25.7773      20.636876       0.30517
  21     513.7        5.1455        0.0107       24.9371       24.9477      19.802268       0.29625
  20     537.5        5.1516        0.0108       24.1537       24.1646      19.012969       0.28017
  19     561.3        5.1592        0.0110       23.4247       23.4358      18.276603       0.26138
  18     585.0        5.1684        0.0112       22.7500       22.7612      17.592813       0.24272
  17     608.8        5.1795        0.0114       22.1480       22.1595      16.979985       0.21753
  16     632.6        5.1927        0.0117       21.6116       21.6233      16.430551       0.19503
  15     656.4        5.2091        0.0119       21.1193       21.1312      15.922144       0.18046
  14     680.1        5.2292        0.0121       20.6722       20.6843      15.455064       0.16579
  13     703.9        5.2541        0.0123       20.2664       20.2787      15.024575       0.15281
  12     727.7        5.2856        0.0125       19.8884       19.9010      14.615346       0.14526
  11     751.5        5.3264        0.0128       19.5264       19.5392      14.212805       0.14289
  10     775.2        5.3795        0.0130       19.1765       19.1895      13.810040       0.14296
   9     799.0        5.4494        0.0131       18.8290       18.8422      13.392822       0.14810
   8     822.8        4.1574        2.0537       15.0818       17.1355      12.978083       0.14722
   7     846.6        2.9094        3.4387       12.0866       15.5253      12.615989       0.12853
   6     870.4        1.6938        4.3100        9.6906       14.0006      12.306735       0.10977
   5     894.1        0.5000        4.7777        7.7730       12.5507      12.050621       0.09091
   4     917.9        0.5032        4.6884        7.6403       12.3287      11.825538       0.07990
   3     941.7        0.5069        4.6045        7.5129       12.1174      11.610490       0.07633
   2     965.5        0.5114        4.5270        7.3921       11.9190      11.407584       0.07202
   1     989.2        0.5171        4.4557        7.2787       11.7344      11.217322       0.06752
   0    1013.0        0.5242        4.3903        7.1728       11.5631      11.038867       0.06336



 Wavenumbers:  6150. -  7700. cm-1, ATM      1
 LEVEL PRESSURE   UPWARD FLUX   DIFDOWN FLUX  DIRDOWN FLUX  DOWNWARD FLUX   NET FLUX    HEATING RATE
          mb          W/m2          W/m2          W/m2        W/m2          W/m2       degree/day
  60   .000300        8.0104        0.0000       64.1588       64.1588      56.148416       0.00000
  59    0.1000        8.0103        0.0000       64.1581       64.1581      56.147756       0.05584
  58    0.1403        8.0103        0.0000       64.1578       64.1578      56.147489       0.05593
  57    0.1968        8.0103        0.0000       64.1574       64.1574      56.147113       0.05625
  56    0.2760        8.0103        0.0000       64.1569       64.1569      56.146589       0.05580
  55    0.3871        8.0103        0.0000       64.1561       64.1562      56.145851       0.05604
  54    0.5430        8.0103        0.0001       64.1551       64.1551      56.144821       0.05578
  53    0.7617        8.0103        0.0001       64.1536       64.1537      56.143379       0.05562
  52     1.069        8.0103        0.0001       64.1515       64.1516      56.141347       0.05590
  51     1.499        8.0102        0.0002       64.1486       64.1487      56.138530       0.05524
  50     2.102        8.0102        0.0002       64.1446       64.1448      56.134642       0.05437
  49     2.949        8.0101        0.0003       64.1389       64.1392      56.129156       0.05468
  48     4.137        8.0100        0.0005       64.1310       64.1315      56.121524       0.05423
  47     5.803        8.0098        0.0007       64.1201       64.1208      56.110975       0.05344
  46     8.139        8.0096        0.0010       64.1051       64.1060      56.096440       0.05249
  45     11.42        8.0093        0.0013       64.0845       64.0858      56.076523       0.05128
  44     16.01        8.0089        0.0019       64.0565       64.0584      56.049473       0.04965
  43     22.46        8.0083        0.0026       64.0187       64.0213      56.013043       0.04767
  42     31.51        8.0075        0.0037       63.9683       63.9720      55.964533       0.04525
  41     44.20        8.0063        0.0052       63.9021       63.9073      55.900987       0.04226
  40     62.00        8.0047        0.0072       63.8170       63.8242      55.819551       0.03861
  39     85.78        8.0025        0.0100       63.7137       63.7237      55.721146       0.03493
  38     109.5        8.0004        0.0128       63.6174       63.6302      55.629827       0.03241
  37     133.1        7.9983        0.0154       63.5307       63.5461      55.547845       0.02944
  36     156.8        7.9962        0.0180       63.4470       63.4650      55.468782       0.02804
  35     180.6        7.9941        0.0208       63.3411       63.3619      55.367805       0.03585
  34     202.8        7.9921        0.0234       63.1774       63.2009      55.208733       0.06040
  33     228.4        7.9902        0.0260       62.8910       62.9171      54.926914       0.09298
  32     252.2        7.9884        0.0286       62.4548       62.4834      54.495037       0.15330
  31     276.0        7.9868        0.0309       61.8034       61.8343      53.847548       0.22983
  30     299.8        7.9855        0.0331       60.8493       60.8823      52.896799       0.33748
  29     323.5        7.9848        0.0350       59.6406       59.6756      51.690840       0.42807
  28     347.3        7.9848        0.0368       58.2994       58.3362      50.351437       0.47543
  27     371.1        7.9855        0.0384       56.9373       56.9758      48.990285       0.48315
  26     394.9        7.9872        0.0399       55.4853       55.5252      47.538057       0.51548
  25     418.6        7.9901        0.0412       53.9434       53.9845      45.994431       0.54792
  24     442.4        7.9945        0.0423       52.3152       52.3575      44.362943       0.57911
  23     466.2        8.0006        0.0433       50.6699       50.7131      42.712514       0.58583
  22     489.9        8.0087        0.0442       49.0609       49.1051      41.096366       0.57367
  21     513.7        8.0194        0.0449       47.4627       47.5077      39.488216       0.57083
  20     537.5        8.0332        0.0456       45.9016       45.9473      37.914013       0.55878
  19     561.3        8.0508        0.0462       44.3828       44.4290      36.378230       0.54514
  18     585.0        8.0729        0.0467       42.9069       42.9536      34.880739       0.53155
  17     608.8        8.0998        0.0473       41.5192       41.5665      33.466731       0.50191
  16     632.6        8.1323        0.0477       40.2123       40.2600      32.127701       0.47530
  15     656.4        8.1730        0.0482       38.9372       38.9853      30.812331       0.46690
  14     680.1        8.2236        0.0485       37.7038       37.7524      29.528732       0.45562
  13     703.9        8.2867        0.0488       36.5148       36.5636      28.276948       0.44433
  12     727.7        8.3671        0.0491       35.3478       35.3969      27.029774       0.44270
  11     751.5        8.4728        0.0492       34.1879       34.2371      25.764317       0.44918
  10     775.2        8.6124        0.0493       33.0529       33.1023      24.489874       0.45237
   9     799.0        8.8013        0.0493       31.9455       31.9949      23.193579       0.46013
   8     822.8        6.6682        3.4225       25.2037       28.6262      21.958047       0.43856
   7     846.6        4.6311        5.6358       19.9325       25.5683      20.937169       0.36237
   6     870.4        2.6640        6.9802       15.7962       22.7763      20.112359       0.29277
   5     894.1        0.7394        7.6556       12.5391       20.1948      19.455365       0.23321
   4     917.9        0.7478        7.4339       12.2075       19.6414      18.893643       0.19939
   3     941.7        0.7579        7.2275       11.8936       19.1211      18.363219       0.18828
   2     965.5        0.7700        7.0356       11.5977       18.6333      17.863253       0.17747
   1     989.2        0.7848        6.8568       11.3185       18.1753      17.390519       0.16777
   0    1013.0        0.8030        6.6894       11.0545       17.7439      16.940895       0.15963



 Wavenumbers:  7700. -  8050. cm-1, ATM      1
 LEVEL PRESSURE   UPWARD FLUX   DIFDOWN FLUX  DIRDOWN FLUX  DOWNWARD FLUX   NET FLUX    HEATING RATE
          mb          W/m2          W/m2          W/m2        W/m2          W/m2       degree/day
  60   .000300        3.9768        0.0000       15.1626       15.1626      11.185855       0.00000
  59    0.1000        3.9768        0.0000       15.1625       15.1625      11.185669       0.01578
  58    0.1403        3.9768        0.0000       15.1624       15.1624      11.185593       0.01587
  57    0.1968        3.9768        0.0000       15.1623       15.1623      11.185486       0.01596
  56    0.2760        3.9768        0.0000       15.1622       15.1622      11.185337       0.01583
  55    0.3871        3.9769        0.0000       15.1620       15.1620      11.185128       0.01590
  54    0.5430        3.9769        0.0000       15.1617       15.1617      11.184836       0.01583
  53    0.7617        3.9769        0.0000       15.1613       15.1614      11.184426       0.01580
  52     1.069        3.9770        0.0001       15.1608       15.1609      11.183847       0.01591
  51     1.499        3.9771        0.0001       15.1601       15.1602      11.183043       0.01577
  50     2.102        3.9773        0.0001       15.1591       15.1592      11.181929       0.01559
  49     2.949        3.9774        0.0001       15.1576       15.1578      11.180347       0.01577
  48     4.137        3.9777        0.0002       15.1556       15.1558      11.178128       0.01577
  47     5.803        3.9781        0.0003       15.1528       15.1531      11.175025       0.01572
  46     8.139        3.9786        0.0004       15.1489       15.1493      11.170686       0.01567
  45     11.42        3.9794        0.0006       15.1434       15.1440      11.164614       0.01563
  44     16.01        3.9804        0.0008       15.1358       15.1366      11.156130       0.01557
  43     22.46        3.9819        0.0011       15.1251       15.1262      11.144264       0.01553
  42     31.51        3.9840        0.0016       15.1101       15.1117      11.127679       0.01547
  41     44.20        3.9870        0.0022       15.0892       15.0915      11.104486       0.01542
  40     62.00        3.9911        0.0031       15.0604       15.0635      11.072356       0.01523
  39     85.78        3.9968        0.0043       15.0223       15.0266      11.029847       0.01509
  38     109.5        4.0026        0.0055       14.9841       14.9896      10.987076       0.01518
  37     133.1        4.0082        0.0066       14.9478       14.9545      10.946271       0.01465
  36     156.8        4.0138        0.0077       14.9129       14.9207      10.906907       0.01396
  35     180.6        4.0198        0.0089       14.8763       14.8852      10.865446       0.01472
  34     202.8        4.0256        0.0100       14.8414       14.8515      10.825840       0.01504
  33     228.4        4.0317        0.0112       14.8062       14.8174      10.785717       0.01324
  32     252.2        4.0379        0.0123       14.7713       14.7836      10.745732       0.01419
  31     276.0        4.0441        0.0135       14.7370       14.7505      10.706396       0.01396
  30     299.8        4.0505        0.0146       14.7027       14.7173      10.666884       0.01403
  29     323.5        4.0570        0.0158       14.6685       14.6843      10.627310       0.01405
  28     347.3        4.0636        0.0169       14.6347       14.6516      10.588019       0.01395
  27     371.1        4.0703        0.0180       14.6014       14.6194      10.549093       0.01382
  26     394.9        4.0773        0.0191       14.5675       14.5866      10.509382       0.01410
  25     418.6        4.0844        0.0202       14.5336       14.5538      10.469404       0.01419
  24     442.4        4.0919        0.0213       14.4995       14.5209      10.429008       0.01434
  23     466.2        4.0995        0.0224       14.4651       14.4876      10.388023       0.01455
  22     489.9        4.1074        0.0235       14.4307       14.4543      10.346870       0.01461
  21     513.7        4.1156        0.0246       14.3957       14.4203      10.304680       0.01498
  20     537.5        4.1241        0.0257       14.3603       14.3860      10.261925       0.01518
  19     561.3        4.1329        0.0268       14.3246       14.3514      10.218417       0.01544
  18     585.0        4.1423        0.0278       14.2875       14.3154      10.173077       0.01609
  17     608.8        4.1520        0.0289       14.2500       14.2789      10.126896       0.01639
  16     632.6        4.1622        0.0300       14.2119       14.2419      10.079718       0.01675
  15     656.4        4.1730        0.0310       14.1722       14.2032      10.030218       0.01757
  14     680.1        4.1845        0.0320       14.1314       14.1634       9.978927       0.01821
  13     703.9        4.1966        0.0331       14.0891       14.1222       9.925516       0.01896
  12     727.7        4.2098        0.0341       14.0446       14.0787       9.868840       0.02012
  11     751.5        4.2243        0.0351       13.9973       14.0324       9.808084       0.02157
  10     775.2        4.2401        0.0361       13.9473       13.9834       9.743352       0.02298
   9     799.0        4.2574        0.0371       13.8944       13.9315       9.674104       0.02458
   8     822.8        3.2731        1.5826       11.2937       12.8763       9.603248       0.02515
   7     846.6        2.3094        2.6674        9.1798       11.8472       9.537774       0.02324
   6     870.4        1.3622        3.3794        7.4616       10.8410       9.478826       0.02092
   5     894.1        0.4275        3.7918        6.0627        9.8545       9.426930       0.01842
   4     917.9        0.4290        3.7717        6.0351        9.8067       9.377713       0.01747
   3     941.7        0.4307        3.7509        6.0065        9.7574       9.326761       0.01809
   2     965.5        0.4324        3.7296        5.9772        9.7068       9.274338       0.01861
   1     989.2        0.4343        3.7077        5.9471        9.6548       9.220439       0.01913
   0    1013.0        0.4364        3.6853        5.9161        9.6015       9.165026       0.01967



 Wavenumbers:  8050. - 12850. cm-1, ATM      1
 LEVEL PRESSURE   UPWARD FLUX   DIFDOWN FLUX  DIRDOWN FLUX  DOWNWARD FLUX   NET FLUX    HEATING RATE
          mb          W/m2          W/m2          W/m2        W/m2          W/m2       degree/day
  60   .000300       50.0272        0.0000      212.2880      212.2880     162.260746       0.00000
  59    0.1000       50.0271        0.0002      212.2876      212.2878     162.260746       0.00000
  58    0.1403       50.0270        0.0003      212.2874      212.2878     162.260746       0.00000
  57    0.1968       50.0269        0.0005      212.2872      212.2877     162.260746      -0.00000
  56    0.2760       50.0268        0.0007      212.2869      212.2876     162.260746       0.00000
  55    0.3871       50.0266        0.0009      212.2864      212.2874     162.260746      -0.00000
  54    0.5430       50.0264        0.0013      212.2858      212.2872     162.260746       0.00000
  53    0.7617       50.0261        0.0019      212.2850      212.2868     162.260746      -0.00000
  52     1.069       50.0256        0.0026      212.2837      212.2863     162.260746       0.00000
  51     1.499       50.0250        0.0037      212.2820      212.2857     162.260746      -0.00000
  50     2.102       50.0240        0.0051      212.2797      212.2848     162.260746      -0.00000
  49     2.949       50.0228        0.0072      212.2763      212.2835     162.260746       0.00000
  48     4.137       50.0210        0.0101      212.2717      212.2817     162.260746       0.00000
  47     5.803       50.0184        0.0141      212.2651      212.2792     162.260746       0.00000
  46     8.139       50.0149        0.0197      212.2559      212.2757     162.260746      -0.00000
  45     11.42       50.0100        0.0277      212.2430      212.2707     162.260746       0.00000
  44     16.01       50.0030        0.0388      212.2250      212.2638     162.260746       0.00000
  43     22.46       49.9933        0.0543      212.1998      212.2541     162.260746      -0.00000
  42     31.51       49.9797        0.0762      212.1643      212.2405     162.260746       0.00000
  41     44.20       49.9606        0.1068      212.1145      212.2213     162.260746      -0.00000
  40     62.00       49.9339        0.1496      212.0450      212.1946     162.260746       0.00000
  39     85.78       49.8982        0.2067      211.9522      212.1589     162.260746       0.00000
  38     109.5       49.8621        0.2647      211.8451      212.1099     162.247790       0.00460
  37     133.1       49.8274        0.3206      211.7421      212.0627     162.235380       0.00446
  36     156.8       49.7935        0.3750      211.6412      212.0161     162.222643       0.00452
  35     180.6       49.7575        0.4328      211.5292      211.9619     162.204447       0.00646
  34     202.8       49.7229        0.4884      211.4041      211.8925     162.169620       0.01322
  33     228.4       49.6877        0.5451      211.2349      211.7800     162.092257       0.02552
  32     252.2       49.6529        0.6018      211.0003      211.6021     161.949220       0.05077
  31     276.0       49.6192        0.6576      210.6760      211.3336     161.714410       0.08335
  30     299.8       49.5865        0.7136      210.2328      210.9464     161.359860       0.12585
  29     323.5       49.5556        0.7694      209.6743      210.4437     160.888057       0.16747
  28     347.3       49.5276        0.8242      209.0175      209.8417     160.314186       0.20370
  27     371.1       49.5029        0.8780      208.2872      209.1652     159.662301       0.23139
  26     394.9       49.4818        0.9319      207.4416      208.3735     158.891699       0.27353
  25     418.6       49.4656        0.9850      206.4758      207.4609     157.995227       0.31821
  24     442.4       49.4555        1.0373      205.3737      206.4110     156.955475       0.36907
  23     466.2       49.4522        1.0890      204.1488      205.2378     155.785576       0.41527
  22     489.9       49.4569        1.1392      202.8236      203.9628     154.505932       0.45422
  21     513.7       49.4715        1.1888      201.3667      202.5555     153.083961       0.50474
  20     537.5       49.4981        1.2368      199.7935      201.0303     151.532190       0.55081
  19     561.3       49.5389        1.2833      198.0998      199.3831     149.844222       0.59916
  18     585.0       49.5963        1.3295      196.2781      197.6076     148.011299       0.65061
  17     608.8       49.6711        1.3741      194.3934      195.7675     146.096488       0.67968
  16     632.6       49.7660        1.4173      192.4530      193.8703     144.104215       0.70717
  15     656.4       49.8893        1.4598      190.4000      191.8598     141.970499       0.75738
  14     680.1       50.0471        1.5005      188.2528      189.7533     139.706239       0.80372
  13     703.9       50.2469        1.5394      186.0204      187.5598     137.312896       0.84954
  12     727.7       50.5039        1.5770      183.6647      185.2417     134.737763       0.91407
  11     751.5       50.8410        1.6128      181.1466      182.7594     131.918401       1.00076
  10     775.2       51.2793        1.6462      178.4925      180.1387     128.859328       1.08585
   9     799.0       51.8537        1.6772      175.7106      177.3878     125.534126       1.18031
   8     822.8       39.6304       20.7201      141.0671      161.7872     122.156831       1.19880
   7     846.6       27.7915       33.7029      113.2819      146.9848     119.193317       1.05193
   6     870.4       16.2396       41.8825       91.0180      132.9005     116.660894       0.89891
   5     894.1        4.8801       46.2858       73.1475      119.4333     114.553245       0.74813
   4     917.9        4.8962       45.5349       72.0390      117.5740     112.677776       0.66571
   3     941.7        4.9187       44.8092       70.9540      115.7632     110.844533       0.65073
   2     965.5        4.9488       44.1108       69.8987      114.0095     109.060731       0.63318
   1     989.2        4.9881       43.4370       68.8725      112.3095     107.321366       0.61727
   0    1013.0        5.0389       42.7859       67.8728      110.6588     105.619881       0.60408



 Wavenumbers: 12850. - 16000. cm-1, ATM      1
 LEVEL PRESSURE   UPWARD FLUX   DIFDOWN FLUX  DIRDOWN FLUX  DOWNWARD FLUX   NET FLUX    HEATING RATE
          mb          W/m2          W/m2          W/m2        W/m2          W/m2       degree/day
  60   .000300       38.8970        0.0000      133.0172      133.0172      94.120200       0.00000
  59    0.1000       38.8967        0.0005      133.0095      133.0101      94.113314       0.58282
  58    0.1403       38.8967        0.0007      133.0064      133.0072      94.110503       0.58874
  57    0.1968       38.8966        0.0010      133.0021      133.0032      94.106543       0.59150
  56    0.2760       38.8966        0.0015      132.9962      132.9976      94.101062       0.58406
  55    0.3871       38.8966        0.0021      132.9880      132.9900      94.093467       0.57687
  54    0.5430       38.8967        0.0029      132.9769      132.9798      94.083124       0.55987
  53    0.7617       38.8970        0.0040      132.9618      132.9659      94.068901       0.54884
  52     1.069       38.8978        0.0057      132.9413      132.9470      94.049134       0.54372
  51     1.499       38.8997        0.0080      132.9135      132.9214      94.021729       0.53748
  50     2.102       38.9037        0.0111      132.8748      132.8860      93.982220       0.55239
  49     2.949       38.9120        0.0156      132.8176      132.8331      93.921100       0.60926
  48     4.137       38.9272        0.0219      132.7325      132.7544      93.827165       0.66751
  47     5.803       38.9509        0.0306      132.6115      132.6421      93.691197       0.68879
  46     8.139       38.9831        0.0428      132.4493      132.4922      93.509037       0.65788
  45     11.42       39.0228        0.0600      132.2424      132.3024      93.279587       0.59075
  44     16.01       39.0696        0.0838      131.9828      132.0666      92.996985       0.51872
  43     22.46       39.1233        0.1172      131.6592      131.7765      92.653179       0.44988
  42     31.51       39.1778        0.1640      131.2747      131.4387      92.260821       0.36602
  41     44.20       39.2210        0.2294      130.8450      131.0745      91.853434       0.27093
  40     62.00       39.2459        0.3205      130.3669      130.6874      91.441483       0.19531
  39     85.78       39.2348        0.4420      129.8828      130.3248      91.090031       0.12475
  38     109.5       39.2068        0.5659      129.4797      130.0456      90.838789       0.08918
  37     133.1       39.1720        0.6848      129.1217      129.8066      90.634552       0.07334
  36     156.8       39.1339        0.8003      128.7892      129.5895      90.455550       0.06347
  35     180.6       39.0879        0.9227      128.4511      129.3738      90.285921       0.06022
  34     202.8       39.0382        1.0403      128.1377      129.1780      90.139816       0.05547
  33     228.4       38.9850        1.1600      127.8216      128.9815      89.996543       0.04727
  32     252.2       38.9303        1.2797      127.5049      128.7846      89.854285       0.05050
  31     276.0       38.8750        1.3977      127.1922      128.5899      89.714847       0.04949
  30     299.8       38.8186        1.5163      126.8751      128.3915      89.572830       0.05041
  29     323.5       38.7624        1.6349      126.5537      128.1886      89.426232       0.05204
  28     347.3       38.7074        1.7522      126.2298      127.9819      89.274583       0.05383
  27     371.1       38.6538        1.8676      125.9047      127.7723      89.118492       0.05541
  26     394.9       38.6008        1.9843      125.5688      127.5531      88.952258       0.05901
  25     418.6       38.5497        2.1003      125.2257      127.3261      88.776365       0.06243
  24     442.4       38.5008        2.2158      124.8736      127.0894      88.588653       0.06663
  23     466.2       38.4541        2.3312      124.5111      126.8423      88.388161       0.07117
  22     489.9       38.4108        2.4448      124.1420      126.5868      88.176001       0.07531
  21     513.7       38.3708        2.5585      123.7577      126.3162      87.945330       0.08188
  20     537.5       38.3355        2.6706      123.3614      126.0320      87.696497       0.08833
  19     561.3       38.3055        2.7811      122.9509      125.7320      87.426502       0.09584
  18     585.0       38.2805        2.8925      122.5175      125.4100      87.129485       0.10543
  17     608.8       38.2608        3.0020      122.0752      125.0772      86.816381       0.11114
  16     632.6       38.2469        3.1096      121.6228      124.7324      86.485473       0.11746
  15     656.4       38.2400        3.2174      121.1473      124.3647      86.124725       0.12805
  14     680.1       38.2423        3.3231      120.6531      123.9762      85.733893       0.13873
  13     703.9       38.2555        3.4266      120.1376      123.5641      85.308639       0.15095
  12     727.7       38.2823        3.5292      119.5892      123.1184      84.836129       0.16772
  11     751.5       38.3258        3.6308      119.0038      122.6346      84.308760       0.18719
  10     775.2       38.3893        3.7299      118.3848      122.1146      83.725299       0.20710
   9     799.0       38.4770        3.8261      117.7284      121.5545      83.077503       0.22994
   8     822.8       29.9867       16.8632       95.5237      112.3869      82.400251       0.24040
   7     846.6       21.6814       25.9593       77.5004      103.4597      81.778310       0.22076
   6     870.4       13.5217       31.8716       62.8724       94.7441      81.222315       0.19736
   5     894.1        5.4739       35.2066       51.0057       86.2122      80.738349       0.17179
   4     917.9        5.4364       35.0324       50.6895       85.7219      80.285499       0.16074
   3     941.7        5.4010       34.8557       50.3693       85.2251      79.824096       0.16378
   2     965.5        5.3681       34.6777       50.0478       84.7254      79.357350       0.16568
   1     989.2        5.3380       34.4985       49.7253       84.2239      78.885870       0.16732
   0    1013.0        5.3110       34.3184       49.4022       83.7206      78.409623       0.16908



 Wavenumbers: 16000. - 22650. cm-1, ATM      1
 LEVEL PRESSURE   UPWARD FLUX   DIFDOWN FLUX  DIRDOWN FLUX  DOWNWARD FLUX   NET FLUX    HEATING RATE
          mb          W/m2          W/m2          W/m2        W/m2          W/m2       degree/day
  60   .000300       73.2976        0.0000      212.0812      212.0812     138.783529       0.00000
  59    0.1000       73.2964        0.0029      212.0760      212.0790     138.782549       0.08294
  58    0.1403       73.2961        0.0041      212.0737      212.0778     138.781764       0.16439
  57    0.1968       73.2956        0.0058      212.0701      212.0760     138.780344       0.21208
  56    0.2760       73.2951        0.0082      212.0648      212.0730     138.777847       0.26603
  55    0.3871       73.2947        0.0114      212.0569      212.0683     138.773638       0.31974
  54    0.5430       73.2944        0.0161      212.0449      212.0609     138.766580       0.38206
  53    0.7617       73.2946        0.0225      212.0263      212.0488     138.754126       0.48057
  52     1.069       73.2964        0.0316      211.9965      212.0281     138.731738       0.61585
  51     1.499       73.3014        0.0443      211.9488      211.9931     138.691658       0.78605
  50     2.102       73.3133        0.0618      211.8701      211.9319     138.618538       1.02231
  49     2.949       73.3395        0.0866      211.7353      211.8219     138.482449       1.35657
  48     4.137       73.3886        0.1215      211.5152      211.6367     138.248067       1.66554
  47     5.803       73.4663        0.1701      211.1861      211.3562     137.889845       1.81469
  46     8.139       73.5718        0.2381      210.7354      210.9734     137.401607       1.76331
  45     11.42       73.7001        0.3330      210.1559      210.4888     136.788773       1.57782
  44     16.01       73.8487        0.4654      209.4264      209.8918     136.043044       1.36880
  43     22.46       74.0146        0.6504      208.5155      209.1659     135.151234       1.16697
  42     31.51       74.1735        0.9087      207.4281      208.3368     134.163255       0.92165
  41     44.20       74.2777        1.2700      206.1997      207.4697     133.191959       0.64595
  40     62.00       74.2972        1.7713      204.7997      206.5711     132.273845       0.43529
  39     85.78       74.1660        2.4373      203.3150      205.7523     131.586378       0.24402
  38     109.5       73.9447        3.1097      202.0234      205.1331     131.188336       0.14129
  37     133.1       73.7087        3.7521      200.8408      204.5930     130.884263       0.10920
  36     156.8       73.4663        4.3727      199.7260      204.0987     130.632431       0.08930
  35     180.6       73.1918        5.0277      198.5859      203.6136     130.421832       0.07477
  34     202.8       72.9113        5.6543      197.5309      203.1852     130.273866       0.05618
  33     228.4       72.6169        6.2891      196.4789      202.7680     130.151134       0.04049
  32     252.2       72.3164        6.9212      195.4408      202.3620     130.045637       0.03745
  31     276.0       72.0143        7.5417      194.4310      201.9727     129.958417       0.03096
  30     299.8       71.7057        8.1629      193.4267      201.5896     129.883867       0.02646
  29     323.5       71.3945        8.7811      192.4286      201.2097     129.815159       0.02439
  28     347.3       71.0845        9.3897      191.4464      200.8361     129.751602       0.02256
  27     371.1       70.7769        9.9864      190.4836      200.4700     129.693097       0.02077
  26     394.9       70.4638       10.5875      189.5132      200.1007     129.636877       0.01996
  25     418.6       70.1507       11.1829      188.5503      199.7332     129.582544       0.01929
  24     442.4       69.8372       11.7738      187.5927      199.3665     129.529340       0.01888
  23     466.2       69.5222       12.3622      186.6371      198.9992     129.477007       0.01858
  22     489.9       69.2103       12.9399      185.6961      198.6360     129.425713       0.01821
  21     513.7       68.8963       13.5170      184.7529      198.2699     129.373626       0.01849
  20     537.5       68.5852       14.0849      183.8209      197.9058     129.320529       0.01885
  19     561.3       68.2767       14.6444      182.8981      197.5425     129.265746       0.01945
  18     585.0       67.9642       15.2079      181.9641      197.1720     129.207794       0.02057
  17     608.8       67.6550       15.7619      181.0409      196.8028     129.147744       0.02132
  16     632.6       67.3493       16.3068      180.1276      196.4345     129.085175       0.02221
  15     656.4       67.0409       16.8539      179.2047      196.0586     129.017709       0.02395
  14     680.1       66.7365       17.3921      178.2893      195.6814     128.944954       0.02582
  13     703.9       66.4363       17.9217      177.3803      195.3020     128.865725       0.02812
  12     727.7       66.1362       18.4506      176.4629      194.9135     128.777262       0.03140
  11     751.5       65.8372       18.9787      175.5353      194.5139     128.676774       0.03567
  10     775.2       65.5433       19.4993      174.6074      194.1068     128.563486       0.04021
   9     799.0       65.2553       20.0126      173.6783      193.6909     128.435540       0.04542
   8     822.8       51.7151       39.0208      140.9930      180.0138     128.298661       0.04859
   7     846.6       38.4155       52.1271      114.4581      166.5852     128.169720       0.04577
   6     870.4       25.3116       60.4543       92.9089      153.3632     128.051516       0.04196
   5     894.1       12.3667       64.8852       75.4274      140.3126     127.945938       0.03748
   4     917.9       12.0681       64.9003       75.0122      139.9125     127.844463       0.03602
   3     941.7       11.7691       64.9119       74.5962      139.5081     127.738981       0.03744
   2     965.5       11.4722       64.9199       74.1827      139.1026     127.630374       0.03855
   1     989.2       11.1772       64.9245       73.7718      138.6962     127.518997       0.03953
   0    1013.0       10.8842       64.9258       73.3634      138.2893     127.405065       0.04045



 Wavenumbers: 22650. - 29000. cm-1, ATM      1
 LEVEL PRESSURE   UPWARD FLUX   DIFDOWN FLUX  DIRDOWN FLUX  DOWNWARD FLUX   NET FLUX    HEATING RATE
          mb          W/m2          W/m2          W/m2        W/m2          W/m2       degree/day
  60   .000300       35.6798        0.0000       80.0317       80.0317      44.351953       0.00000
  59    0.1000       35.6783        0.0036       80.0267       80.0303      44.351953       0.00000
  58    0.1403       35.6777        0.0050       80.0247       80.0297      44.351953       0.00000
  57    0.1968       35.6769        0.0070       80.0218       80.0288      44.351953      -0.00000
  56    0.2760       35.6757        0.0099       80.0178       80.0277      44.351953       0.00000
  55    0.3871       35.6741        0.0139       80.0122       80.0260      44.351953       0.00000
  54    0.5430       35.6718        0.0194       80.0043       80.0238      44.351953      -0.00000
  53    0.7617       35.6686        0.0272       79.9933       80.0206      44.351953       0.00000
  52     1.069       35.6641        0.0382       79.9778       80.0161      44.351953       0.00000
  51     1.499       35.6578        0.0535       79.9562       80.0098      44.351953       0.00000
  50     2.102       35.6491        0.0748       79.9263       80.0011      44.351953      -0.00000
  49     2.949       35.6368        0.1049       79.8839       79.9888      44.351953      -0.00000
  48     4.137       35.6195        0.1471       79.8244       79.9714      44.351953       0.00000
  47     5.803       35.5953        0.2060       79.7412       79.9472      44.351953      -0.00000
  46     8.139       35.5614        0.2884       79.6249       79.9133      44.351953       0.00000
  45     11.42       35.5139        0.4035       79.4623       79.8658      44.351953       0.00000
  44     16.01       35.4474        0.5641       79.2352       79.7994      44.351953      -0.00000
  43     22.46       35.3542        0.7883       78.9179       79.7062      44.351953       0.00000
  42     31.51       35.2236        1.1005       78.4751       79.5756      44.351953       0.00000
  41     44.20       35.0402        1.5348       77.8573       79.3921      44.351953       0.00000
  40     62.00       34.7845        2.1326       77.0038       79.1365      44.351953       0.00000
  39     85.78       34.4435        2.9162       75.8793       78.7954      44.351953      -0.00000
  38     109.5       34.0973        3.6954       74.7539       78.4493      44.351953       0.00000
  37     133.1       33.7645        4.4296       73.6869       78.1165      44.351953       0.00000
  36     156.8       33.4411        5.1293       72.6637       77.7930      44.351953       0.00000
  35     180.6       33.0976        5.8574       71.5922       77.4495      44.351953      -0.00000
  34     202.8       32.7672        6.5434       70.5757       77.1191      44.351953       0.00000
  33     228.4       32.4305        7.2283       69.5542       76.7824      44.351953      -0.00000
  32     252.2       32.0931        7.9002       68.5449       76.4451      44.351953       0.00000
  31     276.0       31.7599        8.5500       67.5619       76.1119      44.351953       0.00000
  30     299.8       31.4243        9.1908       66.5855       75.7763      44.351953       0.00000
  29     323.5       31.0882        9.8189       65.6212       75.4401      44.351953      -0.00000
  28     347.3       30.7551       10.4279       64.6791       75.1070      44.351953       0.00000
  27     371.1       30.4263       11.0161       63.7621       74.7783      44.351953      -0.00000
  26     394.9       30.0931       11.5996       62.8455       74.4450      44.351953       0.00000
  25     418.6       29.7606       12.1687       61.9439       74.1126      44.351953      -0.00000
  24     442.4       29.4286       12.7247       61.0558       73.7805      44.351953      -0.00000
  23     466.2       29.0957       13.2695       60.1781       73.4476      44.351953       0.00000
  22     489.9       28.7665       13.7961       59.3223       73.1185      44.351953       0.00000
  21     513.7       28.4354       14.3139       58.4735       72.7873      44.351953       0.00000
  20     537.5       28.1073       14.8151       57.6441       72.4592      44.351953      -0.00000
  19     561.3       27.7817       15.3012       56.8325       72.1336      44.351953      -0.00000
  18     585.0       27.4514       15.7826       56.0207       71.8034      44.351953       0.00000
  17     608.8       27.1242       16.2484       55.2278       71.4762      44.351953      -0.00000
  16     632.6       26.8001       16.6989       54.4531       71.1520      44.351953      -0.00000
  15     656.4       26.4722       17.1437       53.6804       70.8241      44.351953       0.00000
  14     680.1       26.1470       17.5741       52.9249       70.4990      44.351953       0.00000
  13     703.9       25.8245       17.9906       52.1859       70.1764      44.351953       0.00000
  12     727.7       25.4997       18.3997       51.4520       69.8517      44.351953       0.00000
  11     751.5       25.1726       18.8013       50.7232       69.5245      44.351953       0.00000
  10     775.2       24.8471       19.1908       50.0082       69.1990      44.351953       0.00000
   9     799.0       24.5232       19.5685       49.3067       68.8751      44.351953      -0.00000
   8     822.8       19.6962       24.3691       39.6790       64.0481      44.351933       0.00001
   7     846.6       14.9410       27.3611       31.9318       59.2929      44.351915       0.00001
   6     870.4       10.2451       28.8994       25.6976       54.5970      44.351899       0.00001
   5     894.1        5.5973       29.2671       20.6822       49.9492      44.351885       0.00000
   4     917.9        5.2865       29.2472       20.3912       49.6383      44.351885       0.00000
   3     941.7        4.9748       29.2229       20.1038       49.3267      44.351885      -0.00000
   2     965.5        4.6648       29.1946       19.8221       49.0167      44.351885       0.00000
   1     989.2        4.3564       29.1624       19.5459       48.7083      44.351885      -0.00000
   0    1013.0        4.0496       29.1263       19.2752       48.4015      44.351885       0.00000



 Wavenumbers: 29000. - 38000. cm-1, ATM      1
 LEVEL PRESSURE   UPWARD FLUX   DIFDOWN FLUX  DIRDOWN FLUX  DOWNWARD FLUX   NET FLUX    HEATING RATE
          mb          W/m2          W/m2          W/m2        W/m2          W/m2       degree/day
  60   .000300        6.8100        0.0000       28.2225       28.2225      21.412541       0.00000
  59    0.1000        6.8082        0.0028       28.1859       28.1887      21.380514       2.71099
  58    0.1403        6.8075        0.0039       28.1585       28.1625      21.354946       5.35399
  57    0.1968        6.8066        0.0055       28.1101       28.1156      21.309001       6.86263
  56    0.2760        6.8055        0.0077       28.0271       28.0348      21.229254       8.49744
  55    0.3871        6.8041        0.0107       27.8913       27.9020      21.097928       9.97550
  54    0.5430        6.8023        0.0148       27.6738       27.6886      20.886246      11.45875
  53    0.7617        6.8004        0.0203       27.3185       27.3388      20.538488      13.41921
  52     1.069        6.7985        0.0276       26.7574       26.7850      19.986541      15.18238
  51     1.499        6.7974        0.0370       25.9466       25.9836      19.186234      15.69581
  50     2.102        6.7986        0.0488       24.8886       24.9373      18.138679      14.64624
  49     2.949        6.8053        0.0641       23.6539       23.7180      16.912691      12.22099
  48     4.137        6.8210        0.0842       22.3800       22.4642      15.643166       9.02131
  47     5.803        6.8481        0.1109       21.1533       21.2642      14.416118       6.21600
  46     8.139        6.8862        0.1468       20.0304       20.1773      13.291056       4.06324
  45     11.42        6.9339        0.1955       19.0179       19.2134      12.279525       2.60432
  44     16.01        6.9915        0.2611       18.0801       18.3412      11.349739       1.70664
  43     22.46        7.0604        0.3500       17.1858       17.5358      10.475402       1.14410
  42     31.51        7.1335        0.4708       16.3448       16.8157       9.682188       0.73996
  41     44.20        7.1918        0.6368       15.5663       16.2032       9.011378       0.44611
  40     62.00        7.2236        0.8622       14.8065       15.6687       8.445103       0.26848
  39     85.78        7.1949        1.1558       14.0925       15.2483       8.053411       0.13903
  38     109.5        7.1244        1.4456       13.5167       14.9623       7.837949       0.07648
  37     133.1        7.0477        1.7120       13.0134       14.7254       7.677714       0.05754
  36     156.8        6.9692        1.9596       12.5564       14.5160       7.546778       0.04643
  35     180.6        6.8790        2.2124       12.1053       14.3178       7.438725       0.03836
  34     202.8        6.7850        2.4469       11.7016       14.1485       7.363468       0.02857
  33     228.4        6.6859        2.6762       11.3112       13.9874       7.301502       0.02044
  32     252.2        6.5847        2.8961       10.9372       13.8334       7.248655       0.01876
  31     276.0        6.4829        3.1044       10.5839       13.6883       7.205421       0.01535
  30     299.8        6.3788        3.3054       10.2424       13.5478       7.168988       0.01293
  29     323.5        6.2742        3.4976        9.9126       13.4102       7.136057       0.01169
  28     347.3        6.1702        3.6793        9.5973       13.2765       7.106325       0.01055
  27     371.1        6.0673        3.8504        9.2967       13.1471       7.079780       0.00942
  26     394.9        5.9627        4.0158        9.0022       13.0180       7.055245       0.00871
  25     418.6        5.8584        4.1728        8.7182       12.8909       7.032567       0.00805
  24     442.4        5.7541        4.3219        8.4437       12.7656       7.011541       0.00746
  23     466.2        5.6494        4.4640        8.1775       12.6415       6.992112       0.00690
  22     489.9        5.5459        4.5974        7.9229       12.5203       6.974362       0.00630
  21     513.7        5.4418        4.7246        7.6749       12.3995       6.957716       0.00591
  20     537.5        5.3386        4.8439        7.4369       12.2808       6.942171       0.00552
  19     561.3        5.2363        4.9559        7.2080       12.1639       6.927604       0.00517
  18     585.0        5.1327        5.0632        6.9831       12.0462       6.913583       0.00498
  17     608.8        5.0301        5.1632        6.7672       11.9304       6.900355       0.00470
  16     632.6        4.9285        5.2565        6.5598       11.8163       6.887855       0.00444
  15     656.4        4.8258        5.3451        6.3565       11.7016       6.875790       0.00428
  14     680.1        4.7241        5.4274        6.1611       11.5885       6.864359       0.00406
  13     703.9        4.6234        5.5037        5.9732       11.4769       6.853516       0.00385
  12     727.7        4.5220        5.5754        5.7897       11.3650       6.843071       0.00371
  11     751.5        4.4199        5.6424        5.6105       11.2529       6.833014       0.00357
  10     775.2        4.3185        5.7042        5.4377       11.1419       6.823447       0.00340
   9     799.0        4.2176        5.7609        5.2710       11.0319       6.814341       0.00323
   8     822.8        3.4411        6.0774        4.1696       10.2470       6.805861       0.00301
   7     846.6        2.6738        6.1738        3.2984        9.4722       6.798401       0.00265
   6     870.4        1.9142        6.0969        2.6093        8.7061       6.791960       0.00229
   5     894.1        1.1607        5.8828        2.0645        7.9472       6.786493       0.00194
   4     917.9        1.0614        5.8421        2.0009        7.8430       6.781569       0.00175
   3     941.7        0.9618        5.7996        1.9391        7.7387       6.776845       0.00168
   2     965.5        0.8628        5.7556        1.8796        7.6352       6.772352       0.00160
   1     989.2        0.7643        5.7103        1.8221        7.5324       6.768075       0.00152
   0    1013.0        0.6664        5.6636        1.7668        7.4304       6.764005       0.00145



 Wavenumbers: 38000. - 50000. cm-1, ATM      1
 LEVEL PRESSURE   UPWARD FLUX   DIFDOWN FLUX  DIRDOWN FLUX  DOWNWARD FLUX   NET FLUX    HEATING RATE
          mb          W/m2          W/m2          W/m2        W/m2          W/m2       degree/day
  60   .000300        0.0069        0.0000        1.7407        1.7407       1.733864       0.00000
  59    0.1000        0.0063        0.0006        1.7198        1.7204       1.714069       1.67562
  58    0.1403        0.0061        0.0008        1.7047        1.7056       1.699408       3.07012
  57    0.1968        0.0059        0.0012        1.6784        1.6796       1.673683       3.84232
  56    0.2760        0.0056        0.0016        1.6341        1.6357       1.630132       4.64062
  55    0.3871        0.0051        0.0021        1.5634        1.5655       1.560405       5.29648
  54    0.5430        0.0046        0.0028        1.4543        1.4571       1.452495       5.84133
  53    0.7617        0.0039        0.0034        1.2861        1.2895       1.285598       6.44019
  52     1.069        0.0031        0.0037        1.0457        1.0495       1.046342       6.58121
  51     1.499        0.0024        0.0037        0.7523        0.7559       0.753565       5.74202
  50     2.102        0.0017        0.0031        0.4664        0.4695       0.467843       3.99478
  49     2.949        0.0012        0.0024        0.2581        0.2604       0.259286       2.07895
  48     4.137        0.0008        0.0017        0.1381        0.1398       0.139011       0.85468
  47     5.803        0.0005        0.0013        0.0728        0.0741       0.073572       0.33150
  46     8.139        0.0003        0.0009        0.0388        0.0397       0.039349       0.12360
  45     11.42        0.0002        0.0006        0.0198        0.0204       0.020194       0.04932
  44     16.01        0.0001        0.0004        0.0090        0.0093       0.009236       0.02011
  43     22.46        0.0000        0.0002        0.0034        0.0036       0.003591       0.00739
  42     31.51        0.0000        0.0001        0.0011        0.0012       0.001179       0.00225
  41     44.20        0.0000        0.0000        0.0003        0.0003       0.000327       0.00057
  40     62.00        0.0000        0.0000        0.0001        0.0001       0.000070       0.00012
  39     85.78        0.0000        0.0000        0.0000        0.0000       0.000012       0.00002
  38     109.5        0.0000        0.0000        0.0000        0.0000       0.000002       0.00000
  37     133.1        0.0000        0.0000        0.0000        0.0000       0.000000       0.00000
  36     156.8        0.0000        0.0000        0.0000        0.0000       0.000000       0.00000
  35     180.6        0.0000        0.0000        0.0000        0.0000       0.000000       0.00000
  34     202.8        0.0000        0.0000        0.0000        0.0000       0.000000       0.00000
  33     228.4        0.0000        0.0000        0.0000        0.0000       0.000000       0.00000
  32     252.2        0.0000        0.0000        0.0000        0.0000       0.000000       0.00000
  31     276.0        0.0000        0.0000        0.0000        0.0000       0.000000       0.00000
  30     299.8        0.0000        0.0000        0.0000        0.0000       0.000000       0.00000
  29     323.5        0.0000        0.0000        0.0000        0.0000       0.000000       0.00000
  28     347.3        0.0000        0.0000        0.0000        0.0000       0.000000       0.00000
  27     371.1        0.0000        0.0000        0.0000        0.0000       0.000000       0.00000
  26     394.9        0.0000        0.0000        0.0000        0.0000       0.000000       0.00000
  25     418.6        0.0000        0.0000        0.0000        0.0000       0.000000       0.00000
  24     442.4        0.0000        0.0000        0.0000        0.0000       0.000000       0.00000
  23     466.2        0.0000        0.0000        0.0000        0.0000       0.000000       0.00000
  22     489.9        0.0000        0.0000        0.0000        0.0000       0.000000       0.00000
  21     513.7        0.0000        0.0000        0.0000        0.0000       0.000000       0.00000
  20     537.5        0.0000        0.0000        0.0000        0.0000       0.000000       0.00000
  19     561.3        0.0000        0.0000        0.0000        0.0000       0.000000       0.00000
  18     585.0        0.0000        0.0000        0.0000        0.0000       0.000000       0.00000
  17     608.8        0.0000        0.0000        0.0000        0.0000       0.000000       0.00000
  16     632.6        0.0000        0.0000        0.0000        0.0000       0.000000       0.00000
  15     656.4        0.0000        0.0000        0.0000        0.0000       0.000000       0.00000
  14     680.1        0.0000        0.0000        0.0000        0.0000       0.000000       0.00000
  13     703.9        0.0000        0.0000        0.0000        0.0000       0.000000       0.00000
  12     727.7        0.0000        0.0000        0.0000        0.0000       0.000000       0.00000
  11     751.5        0.0000        0.0000        0.0000        0.0000       0.000000       0.00000
  10     775.2        0.0000        0.0000        0.0000        0.0000       0.000000       0.00000
   9     799.0        0.0000        0.0000        0.0000        0.0000       0.000000       0.00000
   8     822.8        0.0000        0.0000        0.0000        0.0000       0.000000       0.00000
   7     846.6        0.0000        0.0000        0.0000        0.0000       0.000000       0.00000
   6     870.4        0.0000        0.0000        0.0000        0.0000       0.000000       0.00000
   5     894.1        0.0000        0.0000        0.0000        0.0000       0.000000       0.00000
   4     917.9        0.0000        0.0000        0.0000        0.0000       0.000000       0.00000
   3     941.7        0.0000        0.0000        0.0000        0.0000       0.000000       0.00000
   2     965.5        0.0000        0.0000        0.0000        0.0000       0.000000       0.00000
   1     989.2        0.0000        0.0000        0.0000        0.0000       0.000000       0.00000
   0    1013.0        0.0000        0.0000        0.0000        0.0000       0.000000       0.00000



 Wavenumbers:   820. -  2600. cm-1, ATM      1
 LEVEL PRESSURE   UPWARD FLUX   DIFDOWN FLUX  DIRDOWN FLUX  DOWNWARD FLUX   NET FLUX    HEATING RATE
          mb          W/m2          W/m2          W/m2        W/m2          W/m2       degree/day
  60   .000300        0.6371        0.0000        8.1430        8.1430       7.505850       0.00000
  59    0.1000        0.6371        0.0000        8.1331        8.1331       7.495963       0.83687
  58    0.1403        0.6371        0.0000        8.1309        8.1309       7.493824       0.44786
  57    0.1968        0.6371        0.0000        8.1281        8.1281       7.490984       0.42421
  56    0.2760        0.6371        0.0000        8.1245        8.1245       7.487417       0.38011
  55    0.3871        0.6371        0.0000        8.1201        8.1201       7.482956       0.33886
  54    0.5430        0.6371        0.0000        8.1143        8.1143       7.477200       0.31159
  53    0.7617        0.6371        0.0000        8.1063        8.1063       7.469214       0.30817
  52     1.069        0.6371        0.0000        8.0951        8.0951       7.457965       0.30941
  51     1.499        0.6371        0.0000        8.0799        8.0799       7.442775       0.29791
  50     2.102        0.6371        0.0000        8.0595        8.0595       7.422363       0.28539
  49     2.949        0.6371        0.0000        8.0314        8.0314       7.394223       0.28051
  48     4.137        0.6371        0.0000        7.9935        7.9935       7.356374       0.26896
  47     5.803        0.6371        0.0000        7.9444        7.9444       7.307249       0.24886
  46     8.139        0.6371        0.0000        7.8811        7.8811       7.243967       0.22855
  45     11.42        0.6372        0.0000        7.8004        7.8004       7.163236       0.20785
  44     16.01        0.6372        0.0000        7.7070        7.7070       7.069871       0.17137
  43     22.46        0.6372        0.0000        7.6181        7.6181       6.980883       0.11644
  42     31.51        0.6372        0.0000        7.5468        7.5468       6.909585       0.06651
  41     44.20        0.6373        0.0000        7.4816        7.4816       6.844358       0.04338
  40     62.00        0.6373        0.0000        7.3998        7.3998       6.762485       0.03882
  39     85.78        0.6374        0.0000        7.2958        7.2958       6.658371       0.03696
  38     109.5        0.6375        0.0000        7.1946        7.1946       6.557100       0.03595
  37     133.1        0.6376        0.0000        7.1003        7.1003       6.462639       0.03392
  36     156.8        0.6377        0.0000        7.0126        7.0126       6.374901       0.03111
  35     180.6        0.6379        0.0000        6.9166        6.9166       6.278734       0.03414
  34     202.8        0.6380        0.0000        6.8041        6.8042       6.166160       0.04274
  33     228.4        0.6382        0.0000        6.6630        6.6630       6.024824       0.04663
  32     252.2        0.6384        0.0000        6.4917        6.4917       5.853244       0.06090
  31     276.0        0.6387        0.0000        6.3090        6.3091       5.670328       0.06493
  30     299.8        0.6392        0.0000        6.1153        6.1153       5.476126       0.06893
  29     323.5        0.6398        0.0000        5.9197        5.9197       5.279926       0.06964
  28     347.3        0.6406        0.0000        5.7036        5.7036       5.063003       0.07700
  27     371.1        0.6416        0.0000        5.4648        5.4649       4.823298       0.08509
  26     394.9        0.6427        0.0000        5.2059        5.2060       4.563231       0.09231
  25     418.6        0.6441        0.0000        4.9521        4.9521       4.307954       0.09061
  24     442.4        0.6458        0.0000        4.7233        4.7233       4.077573       0.08178
  23     466.2        0.6476        0.0000        4.5370        4.5370       3.889427       0.06678
  22     489.9        0.6497        0.0000        4.3924        4.3925       3.742789       0.05205
  21     513.7        0.6522        0.0000        4.2764        4.2764       3.624228       0.04208
  20     537.5        0.6552        0.0000        4.1775        4.1776       3.522400       0.03615
  19     561.3        0.6586        0.0000        4.0839        4.0840       3.425336       0.03445
  18     585.0        0.6628        0.0000        3.9882        3.9883       3.325523       0.03543
  17     608.8        0.6675        0.0000        3.8907        3.8907       3.223238       0.03631
  16     632.6        0.6730        0.0000        3.7911        3.7912       3.118162       0.03730
  15     656.4        0.6796        0.0000        3.6867        3.6868       3.007152       0.03940
  14     680.1        0.6876        0.0000        3.5795        3.5795       2.891964       0.04089
  13     703.9        0.6971        0.0000        3.4709        3.4710       2.773854       0.04192
  12     727.7        0.7091        0.0000        3.3598        3.3599       2.650802       0.04368
  11     751.5        0.7246        0.0000        3.2443        3.2443       2.519726       0.04653
  10     775.2        0.7448        0.0000        3.1256        3.1256       2.380790       0.04932
   9     799.0        0.7715        0.0000        3.0033        3.0033       2.231789       0.05289
   8     822.8        0.5777        0.3104        2.3490        2.6594       2.081712       0.05327
   7     846.6        0.3942        0.5073        1.8375        2.3448       1.950592       0.04654
   6     870.4        0.2187        0.6193        1.4374        2.0567       1.838047       0.03995
   5     894.1        0.0474        0.6670        1.1230        1.7900       1.742644       0.03386
   4     917.9        0.0493        0.6319        1.0730        1.7049       1.655610       0.03089
   3     941.7        0.0516        0.5970        1.0226        1.6196       1.568022       0.03109
   2     965.5        0.0542        0.5623        0.9720        1.5343       1.480100       0.03121
   1     989.2        0.0574        0.5281        0.9213        1.4495       1.392062       0.03124
   0    1013.0        0.0612        0.4946        0.8709        1.3655       1.304245       0.03118

  Modules and versions used in this calculation:

       rrtmg_sw.1col.f90:  $Revision$                    rrtmg_sw_init.f90:  $Revision$        
     rrtmgsw_cldprop.f90:  $Revision$                  rrtmgsw_cldprmc.f90:  NOT USED          
     rrtmg_sw_reftra.f90:  $Revision$                  rrtmg_sw_spcvrt.f90:  NOT USED          
     rrtmg_sw_spcvmc.f90:  NOT USED                    rrtmgsw_setcoef.f90:  NOT USED          
     rrtmg_sw_taumol.f90:  $Revision$                  rrtmg_sw_vrtqdr.f90:  NOT USED          
                rrtatm.f:  NOT USED                             util_xxx.f:  NOT USED          
                 extra.f:  NOT USED                       rrtmg_sw_k_g.f90:  $Revision$        

