

 Wavenumbers:   820. - 50000. cm-1, ATM      1
 LEVEL PRESSURE   UPWARD FLUX   DIFDOWN FLUX  DIRDOWN FLUX  DOWNWARD FLUX   NET FLUX    HEATING RATE
          mb          W/m2          W/m2          W/m2        W/m2          W/m2       degree/day
  60   .000300      228.5244        0.0000      837.8224      837.8224     609.297959       0.00000
  59    0.1000      228.5191        0.0107      837.7137      837.7244     609.205337       7.83998
  58    0.1403      228.5171        0.0150      837.6563      837.6714     609.154244      10.69941
  57    0.1968      228.5146        0.0211      837.5614      837.5825     609.067902      12.89646
  56    0.2760      228.5113        0.0295      837.4070      837.4365     608.925174      15.20839
  55    0.3871      228.5072        0.0412      837.1641      837.2053     608.698044      17.25275
  54    0.5430      228.5022        0.0573      836.7876      836.8450     608.342790      19.23053
  53    0.7617      228.4967        0.0794      836.1942      836.2736     607.776944      21.83475
  52     1.069      228.4917        0.1097      835.2926      835.4023     606.910618      23.83001
  51     1.499      228.4899        0.1504      834.0471      834.1975     605.707554      23.59479
  50     2.102      228.4971        0.2050      832.4995      832.7045     604.207486      20.97298
  49     2.949      228.5244        0.2813      830.7483      831.0296     602.505241      16.96845
  48     4.137      228.5855        0.3872      828.8944      829.2816     600.696192      12.85519
  47     5.803      228.6877        0.5342      826.9459      827.4801     598.792407       9.64423
  46     8.139      228.8271        0.7385      824.8978      825.6363     596.809213       7.16244
  45     11.42      228.9916        1.0226      822.7006      823.7231     594.731540       5.34925
  44     16.01      229.1730        1.4168      820.2525      821.6693     592.496308       4.10280
  43     22.46      229.3609        1.9649      817.4463      819.4112     590.050235       3.20078
  42     31.51      229.5061        2.7264      814.2518      816.9782     587.472096       2.40505
  41     44.20      229.5127        3.7867      810.6480      814.4347     584.922017       1.69590
  40     62.00      229.3109        5.2486      806.4553      811.7039     582.393037       1.19903
  39     85.78      228.7682        7.1748      801.7674      808.9422     580.173997       0.78767
  38     109.5      228.0713        9.1029      797.4817      806.5846     578.513328       0.58947
  37     133.1      227.3613       10.9252      793.5510      804.4762     577.114879       0.50220
  36     156.8      226.6502       12.6672      789.8548      802.5220     575.871797       0.44080
  35     180.6      225.8658       14.4879      786.0084      800.4963     574.630490       0.44069
  34     202.8      225.0827       16.2127      782.2124      798.4251     573.342325       0.48909
  33     228.4      224.2710       17.9423      778.0467      795.9890     571.718056       0.53591
  32     252.2      223.4503       19.6470      773.4741      793.1211     569.670736       0.72671
  31     276.0      222.6331       21.3034      768.4389      789.7422     567.109122       0.90927
  30     299.8      221.8065       22.9446      762.7642      785.7088     563.902272       1.13830
  29     323.5      220.9802       24.5610      756.6288      781.1897     560.209510       1.31078
  28     347.3      220.1653       26.1355      750.2254      776.3609     556.195609       1.42477
  27     371.1      219.3655       27.6638      743.7251      771.3889     552.023432       1.48095
  26     394.9      218.5614       29.1871      736.8957      766.0828     547.521432       1.59802
  25     418.6      217.7686       30.6804      729.8721      760.5525     542.783938       1.68162
  24     442.4      216.9881       32.1466      722.6783      754.8249     537.836720       1.75606
  23     466.2      216.2187       33.5911      715.4381      749.0291     532.810479       1.78411
  22     489.9      215.4736       34.9946      708.2772      743.2718     527.798232       1.77914
  21     513.7      214.7440       36.3819      701.0441      737.4260     522.681987       1.81606
  20     537.5      214.0458       37.7322      693.8325      731.5647     517.518952       1.83266
  19     561.3      213.3821       39.0486      686.6319      725.6805     512.298411       1.85308
  18     585.0      212.7415       40.3599      679.3701      719.7300     506.988412       1.88483
  17     608.8      212.1426       41.6354      672.2525      713.8879     501.745261       1.86110
  16     632.6      211.5907       42.8765      665.2624      708.1389     496.548205       1.84474
  15     656.4      211.0863       44.1088      658.1915      702.3002     491.213904       1.89346
  14     680.1      210.6565       45.3074      651.1209      696.4284     485.771873       1.93170
  13     703.9      210.3160       46.4735      644.0582      690.5317     480.215652       1.97223
  12     727.7      210.0839       47.6246      636.8758      684.5004     474.416571       2.05843
  11     751.5      210.0043       48.7599      629.4911      678.2510     468.246666       2.19006
  10     775.2      210.1293       49.8653      621.9804      671.8457     461.716387       2.31798
   9     799.0      210.5302       50.9411      614.3441      665.2852     454.754999       2.47101
   8     822.8      164.4017      117.0650      495.1297      612.1947     447.793056       2.47120
   7     846.6      119.4060      161.9709      399.1789      561.1497     441.743762       2.14725
   6     870.4       75.2832      189.9601      321.9350      511.8951     436.611910       1.82160
   5     894.1       31.7902      204.4302      259.7186      464.1488     432.358622       1.50974
   4     917.9       31.0803      202.9255      256.7349      459.6604     428.580119       1.34121
   3     941.7       30.3813      201.4641      253.8089      455.2730     424.891767       1.30921
   2     965.5       29.7010      200.0485      250.9564      451.0048     421.303787       1.27359
   1     989.2       29.0426      198.6737      248.1749      446.8486     417.806042       1.24129
   0    1013.0       28.4103      197.3353      245.4585      442.7938     414.383461       1.21513



 Wavenumbers:  2600. -  3250. cm-1, ATM      1
 LEVEL PRESSURE   UPWARD FLUX   DIFDOWN FLUX  DIRDOWN FLUX  DOWNWARD FLUX   NET FLUX    HEATING RATE
          mb          W/m2          W/m2          W/m2        W/m2          W/m2       degree/day
  60   .000300        0.8890        0.0000        7.3841        7.3841       6.495035       0.00000
  59    0.1000        0.8890        0.0000        7.3840        7.3840       6.494963       0.00613
  58    0.1403        0.8890        0.0000        7.3840        7.3840       6.494933       0.00614
  57    0.1968        0.8890        0.0000        7.3839        7.3839       6.494892       0.00616
  56    0.2760        0.8890        0.0000        7.3839        7.3839       6.494835       0.00613
  55    0.3871        0.8890        0.0000        7.3838        7.3838       6.494750       0.00641
  54    0.5430        0.8890        0.0000        7.3837        7.3837       6.494625       0.00678
  53    0.7617        0.8890        0.0000        7.3835        7.3835       6.494428       0.00761
  52     1.069        0.8890        0.0000        7.3831        7.3831       6.494098       0.00908
  51     1.499        0.8890        0.0000        7.3825        7.3825       6.493489       0.01193
  50     2.102        0.8890        0.0000        7.3814        7.3814       6.492400       0.01522
  49     2.949        0.8890        0.0000        7.3795        7.3795       6.490515       0.01880
  48     4.137        0.8890        0.0000        7.3765        7.3765       6.487501       0.02142
  47     5.803        0.8890        0.0000        7.3721        7.3721       6.483070       0.02245
  46     8.139        0.8890        0.0000        7.3661        7.3661       6.477062       0.02170
  45     11.42        0.8890        0.0000        7.3586        7.3586       6.469556       0.01933
  44     16.01        0.8890        0.0000        7.3500        7.3500       6.460980       0.01574
  43     22.46        0.8890        0.0000        7.3407        7.3407       6.451664       0.01219
  42     31.51        0.8890        0.0000        7.3297        7.3297       6.440698       0.01023
  41     44.20        0.8891        0.0000        7.3134        7.3134       6.424343       0.01088
  40     62.00        0.8891        0.0000        7.2860        7.2860       6.396929       0.01300
  39     85.78        0.8892        0.0000        7.2438        7.2439       6.354721       0.01498
  38     109.5        0.8892        0.0000        7.1969        7.1970       6.307701       0.01669
  37     133.1        0.8894        0.0001        7.1517        7.1518       6.262439       0.01625
  36     156.8        0.8895        0.0001        7.1092        7.1093       6.219813       0.01512
  35     180.6        0.8896        0.0001        7.0662        7.0663       6.176631       0.01533
  34     202.8        0.8898        0.0001        7.0262        7.0262       6.136402       0.01527
  33     228.4        0.8901        0.0001        6.9846        6.9847       6.094587       0.01380
  32     252.2        0.8905        0.0001        6.9407        6.9408       6.050232       0.01574
  31     276.0        0.8911        0.0001        6.8941        6.8942       6.003147       0.01671
  30     299.8        0.8918        0.0001        6.8424        6.8426       5.950756       0.01860
  29     323.5        0.8927        0.0001        6.7849        6.7851       5.892319       0.02074
  28     347.3        0.8939        0.0001        6.7206        6.7207       5.826846       0.02324
  27     371.1        0.8953        0.0001        6.6496        6.6497       5.754402       0.02571
  26     394.9        0.8971        0.0001        6.5676        6.5677       5.670671       0.02972
  25     418.6        0.8992        0.0002        6.4741        6.4743       5.575116       0.03392
  24     442.4        0.9017        0.0002        6.3671        6.3673       5.465608       0.03887
  23     466.2        0.9047        0.0002        6.2486        6.2487       5.344043       0.04315
  22     489.9        0.9082        0.0002        6.1205        6.1206       5.212487       0.04670
  21     513.7        0.9123        0.0002        5.9812        5.9814       5.069047       0.05092
  20     537.5        0.9172        0.0002        5.8338        5.8340       4.916771       0.05405
  19     561.3        0.9230        0.0002        5.6819        5.6821       4.759058       0.05598
  18     585.0        0.9298        0.0002        5.5274        5.5276       4.597842       0.05722
  17     608.8        0.9375        0.0002        5.3761        5.3763       4.438735       0.05648
  16     632.6        0.9464        0.0002        5.2281        5.2283       4.281888       0.05567
  15     656.4        0.9569        0.0002        5.0791        5.0793       4.122345       0.05663
  14     680.1        0.9694        0.0002        4.9299        4.9301       3.960652       0.05739
  13     703.9        0.9843        0.0002        4.7798        4.7800       3.795692       0.05855
  12     727.7        1.0025        0.0002        4.6253        4.6255       3.622990       0.06130
  11     751.5        1.0254        0.0002        4.4633        4.4635       3.438102       0.06563
  10     775.2        1.0543        0.0002        4.2949        4.2950       3.240790       0.07004
   9     799.0        1.0914        0.0002        4.1205        4.1207       3.029322       0.07506
   8     822.8        0.8284        0.4278        3.2180        3.6458       2.817448       0.07521
   7     846.6        0.5803        0.7005        2.5135        3.2141       2.633751       0.06520
   6     870.4        0.3427        0.8569        1.9649        2.8218       2.479073       0.05490
   5     894.1        0.1116        0.9270        1.5372        2.4642       2.352579       0.04490
   4     917.9        0.1148        0.8835        1.4737        2.3572       2.242363       0.03912
   3     941.7        0.1185        0.8426        1.4128        2.2553       2.136879       0.03744
   2     965.5        0.1227        0.8040        1.3547        2.1587       2.035962       0.03582
   1     989.2        0.1277        0.7675        1.2995        2.0670       1.939274       0.03431
   0    1013.0        0.1336        0.7329        1.2466        1.9795       1.845832       0.03318



 Wavenumbers:  3250. -  4000. cm-1, ATM      1
 LEVEL PRESSURE   UPWARD FLUX   DIFDOWN FLUX  DIRDOWN FLUX  DOWNWARD FLUX   NET FLUX    HEATING RATE
          mb          W/m2          W/m2          W/m2        W/m2          W/m2       degree/day
  60   .000300        0.0090        0.0000       12.4485       12.4485      12.439511       0.00000
  59    0.1000        0.0090        0.0000       12.4290       12.4290      12.420008       1.65079
  58    0.1403        0.0090        0.0000       12.4252       12.4252      12.416294       0.77776
  57    0.1968        0.0090        0.0000       12.4208       12.4208      12.411822       0.66803
  56    0.2760        0.0090        0.0000       12.4156       12.4156      12.406659       0.55013
  55    0.3871        0.0090        0.0000       12.4096       12.4096      12.400626       0.45825
  54    0.5430        0.0090        0.0000       12.4022       12.4022      12.393298       0.39669
  53    0.7617        0.0090        0.0000       12.3928       12.3928      12.383837       0.36506
  52     1.069        0.0089        0.0000       12.3807       12.3807      12.371797       0.33119
  51     1.499        0.0089        0.0000       12.3664       12.3664      12.357440       0.28159
  50     2.102        0.0089        0.0000       12.3498       12.3498      12.340806       0.23256
  49     2.949        0.0089        0.0000       12.3302       12.3302      12.321271       0.19473
  48     4.137        0.0089        0.0000       12.3067       12.3068      12.297806       0.16675
  47     5.803        0.0089        0.0000       12.2766       12.2766      12.267688       0.15257
  46     8.139        0.0089        0.0000       12.2347       12.2348      12.225820       0.15121
  45     11.42        0.0089        0.0000       12.1733       12.1733      12.164406       0.15812
  44     16.01        0.0089        0.0000       12.0830       12.0830      12.074096       0.16577
  43     22.46        0.0089        0.0000       11.9527       11.9527      11.943805       0.17049
  42     31.51        0.0089        0.0000       11.7748       11.7748      11.765921       0.16594
  41     44.20        0.0089        0.0001       11.5551       11.5552      11.546284       0.14607
  40     62.00        0.0089        0.0001       11.3050       11.3051      11.296216       0.11856
  39     85.78        0.0088        0.0001       11.0142       11.0143      11.005428       0.10322
  38     109.5        0.0088        0.0001       10.7175       10.7176      10.708808       0.10529
  37     133.1        0.0088        0.0002       10.4459       10.4460      10.437261       0.09752
  36     156.8        0.0088        0.0002       10.1944       10.1946      10.185873       0.08914
  35     180.6        0.0087        0.0002        9.9218        9.9220       9.913315       0.09676
  34     202.8        0.0087        0.0002        9.5970        9.5973       9.588544       0.12331
  33     228.4        0.0087        0.0002        9.1820        9.1823       9.173606       0.13690
  32     252.2        0.0087        0.0003        8.7004        8.7006       8.691962       0.17096
  31     276.0        0.0087        0.0003        8.1693        8.1695       8.160883       0.18851
  30     299.8        0.0086        0.0003        7.5886        7.5889       7.580221       0.20611
  29     323.5        0.0087        0.0003        6.9823        6.9825       6.973874       0.21523
  28     347.3        0.0087        0.0003        6.3629        6.3631       6.354435       0.21988
  27     371.1        0.0087        0.0002        5.7699        5.7701       5.761421       0.21050
  26     394.9        0.0088        0.0002        5.2041        5.2043       5.195525       0.20087
  25     418.6        0.0088        0.0002        4.6962        4.6964       4.687531       0.18032
  24     442.4        0.0090        0.0002        4.2409        4.2411       4.232144       0.16164
  23     466.2        0.0091        0.0002        3.8328        3.8330       3.823832       0.14493
  22     489.9        0.0093        0.0002        3.4648        3.4650       3.455700       0.13067
  21     513.7        0.0096        0.0002        3.1218        3.1220       3.112375       0.12187
  20     537.5        0.0100        0.0002        2.8040        2.8042       2.794199       0.11294
  19     561.3        0.0104        0.0002        2.5083        2.5084       2.497969       0.10515
  18     585.0        0.0111        0.0001        2.2301        2.2302       2.219159       0.09897
  17     608.8        0.0118        0.0001        1.9731        1.9732       1.961355       0.09151
  16     632.6        0.0129        0.0001        1.7337        1.7338       1.720995       0.08532
  15     656.4        0.0142        0.0001        1.5041        1.5042       1.490030       0.08198
  14     680.1        0.0160        0.0001        1.2888        1.2888       1.272851       0.07709
  13     703.9        0.0185        0.0001        1.0908        1.0909       1.072383       0.07116
  12     727.7        0.0220        0.0001        0.9082        0.9083       0.886261       0.06607
  11     751.5        0.0273        0.0001        0.7390        0.7391       0.711801       0.06193
  10     775.2        0.0354        0.0000        0.5856        0.5857       0.550261       0.05734
   9     799.0        0.0486        0.0000        0.4484        0.4484       0.399869       0.05338
   8     822.8        0.0293        0.0306        0.2687        0.2993       0.269987       0.04610
   7     846.6        0.0163        0.0362        0.1567        0.1929       0.176618       0.03314
   6     870.4        0.0072        0.0309        0.0888        0.1197       0.112509       0.02276
   5     894.1        0.0000        0.0225        0.0487        0.0713       0.071258       0.01464
   4     917.9        0.0000        0.0131        0.0315        0.0446       0.044626       0.00945
   3     941.7        0.0000        0.0073        0.0194        0.0267       0.026656       0.00638
   2     965.5        0.0000        0.0038        0.0114        0.0152       0.015178       0.00407
   1     989.2        0.0001        0.0019        0.0064        0.0083       0.008186       0.00248
   0    1013.0        0.0002        0.0009        0.0034        0.0043       0.004085       0.00146



 Wavenumbers:  4000. -  4650. cm-1, ATM      1
 LEVEL PRESSURE   UPWARD FLUX   DIFDOWN FLUX  DIRDOWN FLUX  DOWNWARD FLUX   NET FLUX    HEATING RATE
          mb          W/m2          W/m2          W/m2        W/m2          W/m2       degree/day
  60   .000300        2.9421        0.0000       14.6183       14.6183      11.676140       0.00000
  59    0.1000        2.9421        0.0000       14.6182       14.6182      11.676131       0.00076
  58    0.1403        2.9421        0.0000       14.6182       14.6182      11.676127       0.00076
  57    0.1968        2.9421        0.0000       14.6182       14.6182      11.676122       0.00077
  56    0.2760        2.9421        0.0000       14.6182       14.6182      11.676115       0.00076
  55    0.3871        2.9421        0.0000       14.6182       14.6182      11.676104       0.00080
  54    0.5430        2.9421        0.0000       14.6182       14.6182      11.676089       0.00085
  53    0.7617        2.9421        0.0000       14.6182       14.6182      11.676064       0.00095
  52     1.069        2.9421        0.0000       14.6181       14.6181      11.676023       0.00114
  51     1.499        2.9421        0.0000       14.6180       14.6181      11.675945       0.00152
  50     2.102        2.9421        0.0000       14.6179       14.6179      11.675804       0.00197
  49     2.949        2.9421        0.0000       14.6176       14.6177      11.675551       0.00252
  48     4.137        2.9421        0.0000       14.6172       14.6172      11.675122       0.00305
  47     5.803        2.9421        0.0000       14.6165       14.6165      11.674430       0.00351
  46     8.139        2.9421        0.0000       14.6154       14.6154      11.673347       0.00391
  45     11.42        2.9421        0.0000       14.6137       14.6138      11.671678       0.00430
  44     16.01        2.9421        0.0001       14.6112       14.6112      11.669147       0.00465
  43     22.46        2.9421        0.0001       14.6074       14.6074      11.665372       0.00494
  42     31.51        2.9421        0.0001       14.6017       14.6018      11.659723       0.00527
  41     44.20        2.9421        0.0002       14.5927       14.5929      11.650799       0.00594
  40     62.00        2.9421        0.0003       14.5788       14.5791      11.636935       0.00657
  39     85.78        2.9422        0.0004       14.5592       14.5596      11.617354       0.00695
  38     109.5        2.9425        0.0005       14.5382       14.5386      11.596169       0.00752
  37     133.1        2.9427        0.0006       14.5177       14.5183      11.575559       0.00740
  36     156.8        2.9430        0.0006       14.4977       14.4983      11.555301       0.00718
  35     180.6        2.9434        0.0007       14.4759       14.4766      11.533228       0.00784
  34     202.8        2.9439        0.0008       14.4536       14.4545      11.510550       0.00861
  33     228.4        2.9446        0.0009       14.4280       14.4290      11.484398       0.00863
  32     252.2        2.9455        0.0010       14.3983       14.3994      11.453899       0.01083
  31     276.0        2.9466        0.0011       14.3635       14.3647      11.418094       0.01271
  30     299.8        2.9480        0.0012       14.3217       14.3229      11.374867       0.01534
  29     323.5        2.9499        0.0013       14.2720       14.2733      11.323455       0.01825
  28     347.3        2.9522        0.0014       14.2129       14.2143      11.262126       0.02177
  27     371.1        2.9548        0.0015       14.1438       14.1452      11.190488       0.02543
  26     394.9        2.9577        0.0016       14.0605       14.0620      11.104347       0.03058
  25     418.6        2.9610        0.0017       13.9639       13.9656      11.004615       0.03540
  24     442.4        2.9647        0.0018       13.8548       13.8565      10.891802       0.04004
  23     466.2        2.9689        0.0018       13.7365       13.7383      10.769413       0.04344
  22     489.9        2.9736        0.0019       13.6136       13.6155      10.641881       0.04527
  21     513.7        2.9791        0.0020       13.4859       13.4879      10.508803       0.04724
  20     537.5        2.9854        0.0021       13.3568       13.3588      10.373414       0.04806
  19     561.3        2.9927        0.0021       13.2261       13.2282      10.235545       0.04894
  18     585.0        3.0012        0.0022       13.0915       13.0937      10.092492       0.05078
  17     608.8        3.0110        0.0023       12.9542       12.9565       9.945498       0.05218
  16     632.6        3.0222        0.0023       12.8109       12.8133       9.791107       0.05480
  15     656.4        3.0355        0.0024       12.6541       12.6565       9.621019       0.06037
  14     680.1        3.0513        0.0024       12.4832       12.4857       9.434401       0.06624
  13     703.9        3.0702        0.0025       12.2977       12.3002       9.229995       0.07256
  12     727.7        3.0935        0.0025       12.0950       12.0975       9.003997       0.08022
  11     751.5        3.1231        0.0026       11.8732       11.8758       8.752671       0.08921
  10     775.2        3.1610        0.0026       11.6374       11.6400       8.478971       0.09715
   9     799.0        3.2107        0.0026       11.3910       11.3936       8.182968       0.10507
   8     822.8        2.4311        1.2242        9.0930       10.3172       7.886056       0.10539
   7     846.6        1.6801        2.0465        7.2655        9.3120       7.631955       0.09020
   6     870.4        0.9497        2.5592        5.8102        8.3694       7.419667       0.07535
   5     894.1        0.2329        2.8292        4.6504        7.4796       7.246619       0.06142
   4     917.9        0.2357        2.7685        4.5618        7.3303       7.094566       0.05397
   3     941.7        0.2389        2.7101        4.4756        7.1857       6.946774       0.05246
   2     965.5        0.2426        2.6534        4.3916        7.0450       6.802405       0.05124
   1     989.2        0.2469        2.5981        4.3094        6.9075       6.660563       0.05034
   0    1013.0        0.2520        2.5437        4.2282        6.7720       6.519929       0.04993



 Wavenumbers:  4650. -  5150. cm-1, ATM      1
 LEVEL PRESSURE   UPWARD FLUX   DIFDOWN FLUX  DIRDOWN FLUX  DOWNWARD FLUX   NET FLUX    HEATING RATE
          mb          W/m2          W/m2          W/m2        W/m2          W/m2       degree/day
  60   .000300        2.1655        0.0000       13.8369       13.8369      11.671371       0.00000
  59    0.1000        2.1655        0.0000       13.8347       13.8347      11.669253       0.17928
  58    0.1403        2.1655        0.0000       13.8339       13.8339      11.668414       0.17564
  57    0.1968        2.1655        0.0000       13.8327       13.8327      11.667249       0.17409
  56    0.2760        2.1655        0.0000       13.8312       13.8312      11.665659       0.16936
  55    0.3871        2.1655        0.0000       13.8290       13.8290      11.663480       0.16558
  54    0.5430        2.1655        0.0000       13.8260       13.8260      11.660544       0.15891
  53    0.7617        2.1655        0.0000       13.8221       13.8221      11.656640       0.15065
  52     1.069        2.1655        0.0000       13.8170       13.8170      11.651487       0.14174
  51     1.499        2.1655        0.0000       13.8105       13.8105      11.645003       0.12716
  50     2.102        2.1655        0.0000       13.8026       13.8026      11.637132       0.11005
  49     2.949        2.1655        0.0000       13.7933       13.7933      11.627834       0.09269
  48     4.137        2.1655        0.0000       13.7830       13.7831      11.617590       0.07279
  47     5.803        2.1655        0.0000       13.7724       13.7724      11.606942       0.05394
  46     8.139        2.1655        0.0001       13.7615       13.7616      11.596113       0.03911
  45     11.42        2.1655        0.0001       13.7497       13.7498      11.584340       0.03031
  44     16.01        2.1655        0.0001       13.7347       13.7348      11.569306       0.02760
  43     22.46        2.1655        0.0001       13.7122       13.7123      11.546805       0.02944
  42     31.51        2.1655        0.0002       13.6758       13.6760      11.510478       0.03389
  41     44.20        2.1657        0.0003       13.6167       13.6170      11.451343       0.03933
  40     62.00        2.1659        0.0004       13.5244       13.5248      11.358911       0.04382
  39     85.78        2.1663        0.0005       13.3944       13.3950      11.228660       0.04623
  38     109.5        2.1669        0.0007       13.2650       13.2657      11.098838       0.04608
  37     133.1        2.1676        0.0008       13.1487       13.1495      10.981992       0.04196
  36     156.8        2.1684        0.0009       13.0449       13.0458      10.877422       0.03708
  35     180.6        2.1694        0.0011       12.9437       12.9447      10.775325       0.03625
  34     202.8        2.1706        0.0012       12.8534       12.8546      10.684025       0.03466
  33     228.4        2.1720        0.0013       12.7658       12.7671      10.595091       0.02934
  32     252.2        2.1737        0.0015       12.6801       12.6816      10.507879       0.03096
  31     276.0        2.1757        0.0016       12.5950       12.5966      10.420877       0.03088
  30     299.8        2.1782        0.0017       12.5053       12.5070      10.328769       0.03269
  29     323.5        2.1813        0.0018       12.4093       12.4111      10.229811       0.03513
  28     347.3        2.1849        0.0020       12.3075       12.3094      10.124578       0.03735
  27     371.1        2.1890        0.0021       12.1993       12.2014      10.012410       0.03982
  26     394.9        2.1938        0.0022       12.0815       12.0837       9.889940       0.04347
  25     418.6        2.1993        0.0023       11.9549       11.9571       9.757844       0.04689
  24     442.4        2.2056        0.0024       11.8185       11.8209       9.615311       0.05059
  23     466.2        2.2128        0.0025       11.6730       11.6755       9.462694       0.05417
  22     489.9        2.2209        0.0026       11.5203       11.5229       9.302003       0.05704
  21     513.7        2.2301        0.0027       11.3577       11.3603       9.130277       0.06096
  20     537.5        2.2404        0.0028       11.1878       11.1906       8.950166       0.06393
  19     561.3        2.2521        0.0028       11.0105       11.0133       8.761174       0.06708
  18     585.0        2.2655        0.0029       10.8249       10.8278       8.562245       0.07061
  17     608.8        2.2805        0.0030       10.6366       10.6396       8.359096       0.07211
  16     632.6        2.2972        0.0030       10.4463       10.4494       8.152156       0.07346
  15     656.4        2.3166        0.0031       10.2497       10.2528       7.936216       0.07665
  14     680.1        2.3386        0.0032       10.0509       10.0541       7.715515       0.07834
  13     703.9        2.3637        0.0032        9.8514        9.8546       7.490902       0.07973
  12     727.7        2.3930        0.0032        9.6483        9.6516       7.258515       0.08249
  11     751.5        2.4281        0.0033        9.4402        9.4435       7.015436       0.08628
  10     775.2        2.4699        0.0033        9.2294        9.2327       6.762854       0.08966
   9     799.0        2.5204        0.0034        9.0169        9.0202       6.499826       0.09336
   8     822.8        1.9103        0.9670        7.1893        8.1563       6.246000       0.09010
   7     846.6        1.3221        1.6132        5.7361        7.3493       6.027158       0.07768
   6     870.4        0.7498        2.0129        4.5792        6.5921       5.842328       0.06561
   5     894.1        0.1876        2.2200        3.6573        5.8772       5.689611       0.05421
   4     917.9        0.1906        2.1652        3.5793        5.7445       5.553923       0.04816
   3     941.7        0.1939        2.1122        3.5031        5.6153       5.421396       0.04704
   2     965.5        0.1976        2.0611        3.4289        5.4899       5.292295       0.04583
   1     989.2        0.2019        2.0117        3.3564        5.3681       5.166207       0.04475
   0    1013.0        0.2066        1.9640        3.2856        5.2495       5.042887       0.04378



 Wavenumbers:  5150. -  6150. cm-1, ATM      1
 LEVEL PRESSURE   UPWARD FLUX   DIFDOWN FLUX  DIRDOWN FLUX  DOWNWARD FLUX   NET FLUX    HEATING RATE
          mb          W/m2          W/m2          W/m2        W/m2          W/m2       degree/day
  60   .000300        5.0919        0.0000       34.6891       34.6891      29.597149       0.00000
  59    0.1000        5.0919        0.0000       34.6886       34.6886      29.596652       0.04200
  58    0.1403        5.0919        0.0000       34.6884       34.6884      29.596452       0.04193
  57    0.1968        5.0919        0.0000       34.6881       34.6881      29.596170       0.04209
  56    0.2760        5.0919        0.0000       34.6877       34.6877      29.595779       0.04166
  55    0.3871        5.0919        0.0000       34.6871       34.6871      29.595230       0.04176
  54    0.5430        5.0919        0.0000       34.6864       34.6864      29.594464       0.04146
  53    0.7617        5.0919        0.0000       34.6853       34.6853      29.593394       0.04127
  52     1.069        5.0919        0.0000       34.6838       34.6838      29.591887       0.04145
  51     1.499        5.0919        0.0000       34.6817       34.6817      29.589797       0.04101
  50     2.102        5.0919        0.0001       34.6787       34.6788      29.586906       0.04041
  49     2.949        5.0919        0.0001       34.6746       34.6747      29.582825       0.04068
  48     4.137        5.0919        0.0001       34.6689       34.6690      29.577148       0.04034
  47     5.803        5.0919        0.0002       34.6610       34.6612      29.569320       0.03965
  46     8.139        5.0919        0.0002       34.6502       34.6504      29.558594       0.03874
  45     11.42        5.0918        0.0003       34.6356       34.6359      29.544030       0.03750
  44     16.01        5.0918        0.0005       34.6159       34.6163      29.524503       0.03584
  43     22.46        5.0918        0.0006       34.5899       34.5906      29.498706       0.03376
  42     31.51        5.0919        0.0009       34.5564       34.5573      29.465392       0.03108
  41     44.20        5.0919        0.0012       34.5139       34.5152      29.423242       0.02803
  40     62.00        5.0921        0.0017       34.4619       34.4636      29.371502       0.02453
  39     85.78        5.0924        0.0024       34.4020       34.4044      29.312007       0.02112
  38     109.5        5.0927        0.0031       34.3491       34.3522      29.259473       0.01865
  37     133.1        5.0931        0.0037       34.3031       34.3068      29.213786       0.01641
  36     156.8        5.0934        0.0043       34.2595       34.2638      29.170442       0.01537
  35     180.6        5.0938        0.0050       34.2031       34.2081      29.114294       0.01993
  34     202.8        5.0942        0.0056       34.1091       34.1148      29.020613       0.03557
  33     228.4        5.0946        0.0063       33.9252       33.9315      28.836861       0.06063
  32     252.2        5.0951        0.0069       33.6087       33.6155      28.520379       0.11234
  31     276.0        5.0957        0.0074       33.1225       33.1299      28.034202       0.17257
  30     299.8        5.0965        0.0079       32.4763       32.4842      27.387758       0.22946
  29     323.5        5.0974        0.0083       31.7610       31.7693      26.671910       0.25410
  28     347.3        5.0986        0.0088       31.0137       31.0225      25.923884       0.26552
  27     371.1        5.1001        0.0091       30.2247       30.2338      25.133736       0.28047
  26     394.9        5.1019        0.0094       29.3520       29.3614      24.259509       0.31031
  25     418.6        5.1042        0.0097       28.4400       28.4497      23.345565       0.32441
  24     442.4        5.1070        0.0100       27.5194       27.5294      22.422440       0.32767
  23     466.2        5.1103        0.0102       26.6227       26.6330      21.522661       0.31938
  22     489.9        5.1144        0.0104       25.7669       25.7773      20.662949       0.30516
  21     513.7        5.1194        0.0106       24.9371       24.9477      19.828353       0.29625
  20     537.5        5.1255        0.0108       24.1537       24.1646      19.039068       0.28016
  19     561.3        5.1330        0.0110       23.4247       23.4358      18.302716       0.26137
  18     585.0        5.1423        0.0112       22.7500       22.7612      17.618945       0.24271
  17     608.8        5.1533        0.0114       22.1480       22.1595      17.006138       0.21752
  16     632.6        5.1665        0.0116       21.6116       21.6233      16.456727       0.19502
  15     656.4        5.1828        0.0119       21.1193       21.1312      15.948348       0.18045
  14     680.1        5.2030        0.0121       20.6722       20.6843      15.481300       0.16578
  13     703.9        5.2278        0.0123       20.2664       20.2787      15.050851       0.15279
  12     727.7        5.2593        0.0125       19.8884       19.9009      14.641668       0.14524
  11     751.5        5.3000        0.0127       19.5264       19.5392      14.239184       0.14287
  10     775.2        5.3530        0.0129       19.1765       19.1895      13.836490       0.14294
   9     799.0        5.4228        0.0131       18.8290       18.8422      13.419357       0.14807
   8     822.8        4.1283        2.0512       15.0818       17.1330      13.004731       0.14718
   7     846.6        2.8776        3.4337       12.0866       15.5203      12.642787       0.12848
   6     870.4        1.6594        4.3025        9.6906       13.9931      12.333727       0.10970
   5     894.1        0.4628        4.7677        7.7730       12.5407      12.077858       0.09082
   4     917.9        0.4657        4.6784        7.6403       12.3188      11.853075       0.07979
   3     941.7        0.4691        4.5946        7.5129       12.1075      11.638377       0.07621
   2     965.5        0.4733        4.5171        7.3921       11.9092      11.435884       0.07188
   1     989.2        0.4785        4.4459        7.2787       11.7246      11.246118       0.06735
   0    1013.0        0.4851        4.3806        7.1728       11.5534      11.068274       0.06314



 Wavenumbers:  6150. -  7700. cm-1, ATM      1
 LEVEL PRESSURE   UPWARD FLUX   DIFDOWN FLUX  DIRDOWN FLUX  DOWNWARD FLUX   NET FLUX    HEATING RATE
          mb          W/m2          W/m2          W/m2        W/m2          W/m2       degree/day
  60   .000300        7.9814        0.0000       64.1588       64.1588      56.177373       0.00000
  59    0.1000        7.9814        0.0000       64.1581       64.1581      56.176713       0.05584
  58    0.1403        7.9814        0.0000       64.1578       64.1578      56.176446       0.05593
  57    0.1968        7.9814        0.0000       64.1574       64.1574      56.176070       0.05625
  56    0.2760        7.9814        0.0000       64.1569       64.1569      56.175546       0.05580
  55    0.3871        7.9814        0.0000       64.1561       64.1562      56.174808       0.05604
  54    0.5430        7.9813        0.0001       64.1551       64.1551      56.173778       0.05578
  53    0.7617        7.9813        0.0001       64.1536       64.1537      56.172337       0.05562
  52     1.069        7.9813        0.0001       64.1515       64.1516      56.170304       0.05590
  51     1.499        7.9813        0.0002       64.1486       64.1487      56.167487       0.05524
  50     2.102        7.9812        0.0002       64.1446       64.1448      56.163599       0.05437
  49     2.949        7.9811        0.0003       64.1389       64.1392      56.158114       0.05468
  48     4.137        7.9810        0.0005       64.1310       64.1315      56.150482       0.05423
  47     5.803        7.9809        0.0007       64.1201       64.1208      56.139932       0.05344
  46     8.139        7.9806        0.0010       64.1051       64.1060      56.125397       0.05249
  45     11.42        7.9803        0.0013       64.0845       64.0858      56.105480       0.05128
  44     16.01        7.9799        0.0019       64.0565       64.0584      56.078430       0.04965
  43     22.46        7.9793        0.0026       64.0187       64.0213      56.042000       0.04767
  42     31.51        7.9785        0.0037       63.9683       63.9720      55.993491       0.04525
  41     44.20        7.9773        0.0052       63.9021       63.9073      55.929944       0.04226
  40     62.00        7.9757        0.0072       63.8170       63.8242      55.848509       0.03861
  39     85.78        7.9736        0.0100       63.7137       63.7237      55.750103       0.03493
  38     109.5        7.9714        0.0128       63.6174       63.6302      55.658784       0.03241
  37     133.1        7.9693        0.0154       63.5307       63.5461      55.576803       0.02944
  36     156.8        7.9673        0.0180       63.4470       63.4650      55.497740       0.02804
  35     180.6        7.9652        0.0208       63.3411       63.3619      55.396762       0.03585
  34     202.8        7.9632        0.0234       63.1774       63.2008      55.237691       0.06040
  33     228.4        7.9612        0.0260       62.8910       62.9171      54.955872       0.09298
  32     252.2        7.9594        0.0286       62.4548       62.4834      54.523996       0.15330
  31     276.0        7.9578        0.0309       61.8034       61.8343      53.876507       0.22983
  30     299.8        7.9566        0.0331       60.8493       60.8823      52.925760       0.33748
  29     323.5        7.9558        0.0350       59.6406       59.6756      51.719803       0.42807
  28     347.3        7.9558        0.0368       58.2994       58.3362      50.380402       0.47543
  27     371.1        7.9565        0.0384       56.9373       56.9757      49.019254       0.48315
  26     394.9        7.9582        0.0399       55.4853       55.5252      47.567030       0.51548
  25     418.6        7.9611        0.0412       53.9434       53.9845      46.023412       0.54792
  24     442.4        7.9655        0.0423       52.3152       52.3574      44.391932       0.57911
  23     466.2        7.9716        0.0433       50.6699       50.7131      42.741514       0.58583
  22     489.9        7.9797        0.0441       49.0609       49.1051      41.125379       0.57366
  21     513.7        7.9904        0.0449       47.4627       47.5076      39.517246       0.57082
  20     537.5        8.0042        0.0456       45.9016       45.9472      37.943063       0.55877
  19     561.3        8.0217        0.0462       44.3828       44.4290      36.407306       0.54513
  18     585.0        8.0438        0.0467       42.9069       42.9536      34.909846       0.53154
  17     608.8        8.0706        0.0472       41.5192       41.5665      33.495875       0.50190
  16     632.6        8.1031        0.0477       40.2123       40.2600      32.156889       0.47528
  15     656.4        8.1437        0.0481       38.9372       38.9853      30.841573       0.46688
  14     680.1        8.1943        0.0485       37.7038       37.7523      29.558038       0.45560
  13     703.9        8.2573        0.0488       36.5148       36.5636      28.306331       0.44430
  12     727.7        8.3376        0.0490       35.3478       35.3968      27.059252       0.44266
  11     751.5        8.4432        0.0492       34.1879       34.2371      25.793914       0.44914
  10     775.2        8.5826        0.0493       33.0529       33.1022      24.519616       0.45232
   9     799.0        8.7713        0.0493       31.9455       31.9948      23.223501       0.46007
   8     822.8        6.6352        3.4197       25.2037       28.6234      21.988210       0.43848
   7     846.6        4.5950        5.6302       19.9325       25.5626      20.967652       0.36226
   6     870.4        2.6246        6.9717       15.7962       22.7679      20.143256       0.29263
   5     894.1        0.6967        7.6443       12.5391       20.1835      19.486789       0.23302
   4     917.9        0.7046        7.4227       12.2075       19.6303      18.925705       0.19916
   3     941.7        0.7140        7.2164       11.8936       19.1100      18.396021       0.18802
   2     965.5        0.7254        7.0246       11.5977       18.6223      17.896915       0.17716
   1     989.2        0.7393        6.8460       11.3185       18.1644      17.425195       0.16741
   0    1013.0        0.7564        6.6787       11.0545       17.7332      16.976793       0.15920



 Wavenumbers:  7700. -  8050. cm-1, ATM      1
 LEVEL PRESSURE   UPWARD FLUX   DIFDOWN FLUX  DIRDOWN FLUX  DOWNWARD FLUX   NET FLUX    HEATING RATE
          mb          W/m2          W/m2          W/m2        W/m2          W/m2       degree/day
  60   .000300        3.9656        0.0000       15.1626       15.1626      11.197018       0.00000
  59    0.1000        3.9656        0.0000       15.1625       15.1625      11.196831       0.01578
  58    0.1403        3.9656        0.0000       15.1624       15.1624      11.196755       0.01587
  57    0.1968        3.9657        0.0000       15.1623       15.1623      11.196649       0.01595
  56    0.2760        3.9657        0.0000       15.1622       15.1622      11.196500       0.01582
  55    0.3871        3.9657        0.0000       15.1620       15.1620      11.196291       0.01589
  54    0.5430        3.9657        0.0000       15.1617       15.1617      11.195999       0.01583
  53    0.7617        3.9658        0.0000       15.1613       15.1614      11.195589       0.01580
  52     1.069        3.9659        0.0001       15.1608       15.1609      11.195011       0.01591
  51     1.499        3.9660        0.0001       15.1601       15.1602      11.194207       0.01576
  50     2.102        3.9661        0.0001       15.1591       15.1592      11.193093       0.01558
  49     2.949        3.9663        0.0001       15.1576       15.1578      11.191511       0.01576
  48     4.137        3.9666        0.0002       15.1556       15.1558      11.189293       0.01577
  47     5.803        3.9669        0.0003       15.1528       15.1531      11.186192       0.01571
  46     8.139        3.9675        0.0004       15.1489       15.1493      11.181854       0.01566
  45     11.42        3.9682        0.0006       15.1434       15.1440      11.175784       0.01563
  44     16.01        3.9693        0.0008       15.1358       15.1366      11.167303       0.01557
  43     22.46        3.9708        0.0011       15.1251       15.1262      11.155441       0.01552
  42     31.51        3.9728        0.0016       15.1101       15.1117      11.138862       0.01547
  41     44.20        3.9758        0.0022       15.0892       15.0915      11.115679       0.01542
  40     62.00        3.9799        0.0031       15.0604       15.0635      11.083560       0.01523
  39     85.78        3.9855        0.0043       15.0223       15.0266      11.041068       0.01508
  38     109.5        3.9913        0.0055       14.9841       14.9896      10.998312       0.01518
  37     133.1        3.9970        0.0066       14.9478       14.9545      10.957524       0.01465
  36     156.8        4.0025        0.0077       14.9129       14.9207      10.918176       0.01395
  35     180.6        4.0085        0.0089       14.8763       14.8852      10.876732       0.01471
  34     202.8        4.0143        0.0100       14.8414       14.8515      10.837143       0.01503
  33     228.4        4.0204        0.0112       14.8062       14.8174      10.797036       0.01323
  32     252.2        4.0265        0.0123       14.7713       14.7836      10.757069       0.01419
  31     276.0        4.0327        0.0135       14.7370       14.7505      10.717750       0.01396
  30     299.8        4.0391        0.0146       14.7027       14.7173      10.678257       0.01402
  29     323.5        4.0456        0.0157       14.6685       14.6843      10.638701       0.01404
  28     347.3        4.0522        0.0169       14.6347       14.6516      10.599428       0.01394
  27     371.1        4.0588        0.0180       14.6014       14.6194      10.560521       0.01381
  26     394.9        4.0658        0.0191       14.5675       14.5866      10.520829       0.01409
  25     418.6        4.0730        0.0202       14.5336       14.5538      10.480871       0.01418
  24     442.4        4.0804        0.0213       14.4995       14.5209      10.440495       0.01433
  23     466.2        4.0880        0.0224       14.4651       14.4875      10.399531       0.01454
  22     489.9        4.0958        0.0235       14.4307       14.4542      10.358400       0.01460
  21     513.7        4.1040        0.0246       14.3957       14.4203      10.316232       0.01497
  20     537.5        4.1125        0.0257       14.3603       14.3860      10.273500       0.01517
  19     561.3        4.1213        0.0268       14.3246       14.3513      10.230016       0.01544
  18     585.0        4.1307        0.0278       14.2875       14.3154      10.184701       0.01608
  17     608.8        4.1404        0.0289       14.2500       14.2789      10.138546       0.01638
  16     632.6        4.1505        0.0299       14.2119       14.2419      10.091395       0.01674
  15     656.4        4.1613        0.0310       14.1722       14.2032      10.041924       0.01756
  14     680.1        4.1727        0.0320       14.1314       14.1634       9.990663       0.01820
  13     703.9        4.1849        0.0330       14.0891       14.1221       9.937284       0.01895
  12     727.7        4.1980        0.0341       14.0446       14.0787       9.880642       0.02011
  11     751.5        4.2124        0.0351       13.9973       14.0324       9.819923       0.02155
  10     775.2        4.2282        0.0361       13.9473       13.9834       9.755230       0.02296
   9     799.0        4.2454        0.0370       13.8944       13.9315       9.686026       0.02456
   8     822.8        3.2600        1.5815       11.2937       12.8752       9.615221       0.02513
   7     846.6        2.2951        2.6651        9.1798       11.8449       9.549811       0.02322
   6     870.4        1.3467        3.3761        7.4616       10.8376       9.490940       0.02090
   5     894.1        0.4108        3.7873        6.0627        9.8500       9.439134       0.01839
   4     917.9        0.4122        3.7672        6.0351        9.8023       9.390019       0.01743
   3     941.7        0.4138        3.7464        6.0065        9.7530       9.339175       0.01805
   2     965.5        0.4155        3.7251        5.9772        9.7023       9.286866       0.01857
   1     989.2        0.4173        3.7033        5.9471        9.6504       9.233088       0.01908
   0    1013.0        0.4193        3.6809        5.9161        9.5971       9.177804       0.01963



 Wavenumbers:  8050. - 12850. cm-1, ATM      1
 LEVEL PRESSURE   UPWARD FLUX   DIFDOWN FLUX  DIRDOWN FLUX  DOWNWARD FLUX   NET FLUX    HEATING RATE
          mb          W/m2          W/m2          W/m2        W/m2          W/m2       degree/day
  60   .000300       50.0147        0.0000      212.2880      212.2880     162.273300       0.00000
  59    0.1000       50.0145        0.0002      212.2876      212.2878     162.273300       0.00000
  58    0.1403       50.0145        0.0003      212.2874      212.2878     162.273300      -0.00000
  57    0.1968       50.0144        0.0005      212.2872      212.2877     162.273300      -0.00000
  56    0.2760       50.0143        0.0007      212.2869      212.2876     162.273300       0.00000
  55    0.3871       50.0141        0.0009      212.2864      212.2874     162.273300       0.00000
  54    0.5430       50.0139        0.0013      212.2858      212.2872     162.273300       0.00000
  53    0.7617       50.0135        0.0019      212.2850      212.2868     162.273300      -0.00000
  52     1.069       50.0130        0.0026      212.2837      212.2863     162.273300       0.00000
  51     1.499       50.0124        0.0037      212.2820      212.2857     162.273300       0.00000
  50     2.102       50.0115        0.0051      212.2797      212.2848     162.273300      -0.00000
  49     2.949       50.0102        0.0072      212.2763      212.2835     162.273300       0.00000
  48     4.137       50.0084        0.0101      212.2717      212.2817     162.273300      -0.00000
  47     5.803       50.0059        0.0141      212.2651      212.2792     162.273300       0.00000
  46     8.139       50.0024        0.0197      212.2559      212.2757     162.273300       0.00000
  45     11.42       49.9974        0.0277      212.2430      212.2707     162.273300       0.00000
  44     16.01       49.9905        0.0388      212.2250      212.2638     162.273300       0.00000
  43     22.46       49.9808        0.0543      212.1998      212.2541     162.273300      -0.00000
  42     31.51       49.9672        0.0761      212.1643      212.2405     162.273300       0.00000
  41     44.20       49.9480        0.1068      212.1145      212.2213     162.273300      -0.00000
  40     62.00       49.9213        0.1496      212.0450      212.1946     162.273300       0.00000
  39     85.78       49.8856        0.2067      211.9522      212.1589     162.273300       0.00000
  38     109.5       49.8495        0.2647      211.8451      212.1099     162.260345       0.00460
  37     133.1       49.8148        0.3206      211.7421      212.0627     162.247935       0.00446
  36     156.8       49.7809        0.3750      211.6412      212.0161     162.235197       0.00452
  35     180.6       49.7449        0.4328      211.5292      211.9619     162.217002       0.00646
  34     202.8       49.7103        0.4884      211.4041      211.8925     162.182174       0.01322
  33     228.4       49.6752        0.5451      211.2349      211.7800     162.104812       0.02552
  32     252.2       49.6403        0.6018      211.0003      211.6021     161.961774       0.05077
  31     276.0       49.6066        0.6576      210.6760      211.3336     161.726965       0.08335
  30     299.8       49.5739        0.7136      210.2328      210.9463     161.372415       0.12585
  29     323.5       49.5430        0.7693      209.6743      210.4436     160.900612       0.16747
  28     347.3       49.5150        0.8242      209.0175      209.8417     160.326743       0.20370
  27     371.1       49.4903        0.8779      208.2872      209.1651     159.674858       0.23139
  26     394.9       49.4692        0.9318      207.4416      208.3735     158.904258       0.27353
  25     418.6       49.4530        0.9850      206.4758      207.4608     158.007788       0.31821
  24     442.4       49.4429        1.0373      205.3737      206.4110     156.968039       0.36907
  23     466.2       49.4396        1.0889      204.1488      205.2377     155.798144       0.41526
  22     489.9       49.4442        1.1391      202.8236      203.9628     154.518503       0.45422
  21     513.7       49.4589        1.1887      201.3667      202.5554     153.096537       0.50474
  20     537.5       49.4855        1.2367      199.7935      201.0302     151.544773       0.55081
  19     561.3       49.5262        1.2833      198.0998      199.3830     149.856813       0.59916
  18     585.0       49.5836        1.3294      196.2781      197.6075     148.023900       0.65061
  17     608.8       49.6584        1.3740      194.3934      195.7675     146.109100       0.67967
  16     632.6       49.7533        1.4172      192.4530      193.8702     144.116842       0.70717
  15     656.4       49.8766        1.4597      190.4000      191.8597     141.983142       0.75738
  14     680.1       50.0343        1.5004      188.2528      189.7532     139.718902       0.80371
  13     703.9       50.2342        1.5394      186.0204      187.5597     137.325582       0.84953
  12     727.7       50.4911        1.5769      183.6647      185.2416     134.750478       0.91406
  11     751.5       50.8281        1.6127      181.1466      182.7593     131.931152       1.00074
  10     775.2       51.2665        1.6461      178.4925      180.1386     128.872122       1.08583
   9     799.0       51.8407        1.6771      175.7106      177.3877     125.546973       1.18029
   8     822.8       39.6162       20.7188      141.0671      161.7859     122.169749       1.19878
   7     846.6       27.7759       33.7004      113.2819      146.9823     119.206327       1.05189
   6     870.4       16.2227       41.8788       91.0180      132.8968     116.674022       0.89886
   5     894.1        4.8619       46.2809       73.1475      119.4284     114.566520       0.74808
   4     917.9        4.8778       45.5300       72.0390      117.5691     112.691226       0.66565
   3     941.7        4.9002       44.8043       70.9540      115.7584     110.858180       0.65066
   2     965.5        4.9301       44.1060       69.8987      114.0047     109.074601       0.63310
   1     989.2        4.9692       43.4322       68.8725      112.3047     107.335490       0.61718
   0    1013.0        5.0197       42.7812       67.8728      110.6540     105.634296       0.60398



 Wavenumbers: 12850. - 16000. cm-1, ATM      1
 LEVEL PRESSURE   UPWARD FLUX   DIFDOWN FLUX  DIRDOWN FLUX  DOWNWARD FLUX   NET FLUX    HEATING RATE
          mb          W/m2          W/m2          W/m2        W/m2          W/m2       degree/day
  60   .000300       38.3520        0.0000      133.0172      133.0172      94.665199       0.00000
  59    0.1000       38.3517        0.0005      133.0095      133.0101      94.658314       0.58273
  58    0.1403       38.3517        0.0007      133.0064      133.0072      94.655504       0.58857
  57    0.1968       38.3516        0.0010      133.0021      133.0032      94.651545       0.59128
  56    0.2760       38.3516        0.0015      132.9962      132.9976      94.646066       0.58379
  55    0.3871       38.3516        0.0021      132.9880      132.9900      94.638476       0.57654
  54    0.5430       38.3516        0.0029      132.9769      132.9798      94.628141       0.55947
  53    0.7617       38.3519        0.0040      132.9618      132.9659      94.613930       0.54834
  52     1.069       38.3528        0.0057      132.9413      132.9469      94.594187       0.54309
  51     1.499       38.3546        0.0079      132.9135      132.9214      94.566823       0.53667
  50     2.102       38.3585        0.0111      132.8748      132.8859      94.527390       0.55132
  49     2.949       38.3667        0.0155      132.8176      132.8331      94.466412       0.60785
  48     4.137       38.3816        0.0218      132.7325      132.7543      94.372720       0.66578
  47     5.803       38.4049        0.0305      132.6115      132.6420      94.237126       0.68689
  46     8.139       38.4366        0.0427      132.4493      132.4921      94.055476       0.65604
  45     11.42       38.4755        0.0598      132.2424      132.3022      93.826671       0.58909
  44     16.01       38.5215        0.0836      131.9828      132.0664      93.544857       0.51727
  43     22.46       38.5741        0.1169      131.6592      131.7761      93.202001       0.44864
  42     31.51       38.6275        0.1635      131.2747      131.4382      92.810706       0.36503
  41     44.20       38.6694        0.2288      130.8450      131.0738      92.404377       0.27022
  40     62.00       38.6930        0.3196      130.3669      130.6865      91.993437       0.19483
  39     85.78       38.6808        0.4407      129.8828      130.3235      91.642750       0.12448
  38     109.5       38.6518        0.5642      129.4797      130.0439      91.392107       0.08897
  37     133.1       38.6162        0.6828      129.1217      129.8045      91.188330       0.07318
  36     156.8       38.5774        0.7979      128.7892      129.5871      91.009712       0.06334
  35     180.6       38.5306        0.9199      128.4511      129.3710      90.840406       0.06011
  34     202.8       38.4803        1.0371      128.1377      129.1749      90.694532       0.05539
  33     228.4       38.4266        1.1564      127.8216      128.9780      90.551455       0.04721
  32     252.2       38.3713        1.2758      127.5049      128.7807      90.409368       0.05043
  31     276.0       38.3155        1.3934      127.1922      128.5856      90.270078       0.04944
  30     299.8       38.2586        1.5117      126.8751      128.3868      90.128195       0.05036
  29     323.5       38.2019        1.6299      126.5537      128.1836      89.981730       0.05199
  28     347.3       38.1463        1.7468      126.2298      127.9765      89.830214       0.05378
  27     371.1       38.0923        1.8618      125.9047      127.7666      89.674260       0.05536
  26     394.9       38.0388        1.9781      125.5688      127.5469      89.508173       0.05895
  25     418.6       37.9871        2.0938      125.2257      127.3195      89.332442       0.06238
  24     442.4       37.9376        2.2089      124.8736      127.0825      89.144911       0.06657
  23     466.2       37.8904        2.3239      124.5111      126.8350      88.944621       0.07109
  22     489.9       37.8465        2.4371      124.1420      126.5792      88.732688       0.07523
  21     513.7       37.8058        2.5505      123.7577      126.3081      88.502277       0.08179
  20     537.5       37.7698        2.6621      123.3614      126.0236      88.253744       0.08822
  19     561.3       37.7391        2.7723      122.9509      125.7232      87.984096       0.09571
  18     585.0       37.7133        2.8833      122.5175      125.4008      87.687483       0.10529
  17     608.8       37.6928        2.9924      122.0752      125.0676      87.374827       0.11098
  16     632.6       37.6780        3.0996      121.6228      124.7224      87.044415       0.11728
  15     656.4       37.6702        3.2071      121.1473      124.3544      86.684236       0.12785
  14     680.1       37.6715        3.3124      120.6531      123.9655      86.294054       0.13850
  13     703.9       37.6835        3.4155      120.1376      123.5530      85.869549       0.15068
  12     727.7       37.7090        3.5178      119.5892      123.1069      85.397919       0.16741
  11     751.5       37.7512        3.6190      119.0038      122.6227      84.871589       0.18683
  10     775.2       37.8131        3.7176      118.3848      122.1024      84.289349       0.20667
   9     799.0       37.8989        3.8136      117.7284      121.5419      83.642986       0.22943
   8     822.8       29.3534       16.7972       95.5237      112.3209      82.967560       0.23975
   7     846.6       20.9924       25.8399       77.5004      103.3403      82.347939       0.21994
   6     870.4       12.7764       31.6988       62.8724       94.5712      81.794806       0.19634
   5     894.1        4.6715       34.9802       51.0057       85.9858      81.314308       0.17056
   4     917.9        4.6304       34.8064       50.6895       85.4959      80.865453       0.15933
   3     941.7        4.5911       34.6302       50.3693       84.9995      80.408408       0.16223
   2     965.5        4.5539       34.4526       50.0478       84.5003      79.946393       0.16400
   1     989.2        4.5192       34.2739       49.7253       83.9993      79.480054       0.16550
   0    1013.0        4.4871       34.0943       49.4022       83.4965      79.009406       0.16710



 Wavenumbers: 16000. - 22650. cm-1, ATM      1
 LEVEL PRESSURE   UPWARD FLUX   DIFDOWN FLUX  DIRDOWN FLUX  DOWNWARD FLUX   NET FLUX    HEATING RATE
          mb          W/m2          W/m2          W/m2        W/m2          W/m2       degree/day
  60   .000300       74.1906        0.0000      212.0812      212.0812     137.890528       0.00000
  59    0.1000       74.1894        0.0030      212.0760      212.0790     137.889545       0.08324
  58    0.1403       74.1891        0.0042      212.0737      212.0778     137.888757       0.16498
  57    0.1968       74.1886        0.0058      212.0701      212.0760     137.887332       0.21284
  56    0.2760       74.1882        0.0082      212.0648      212.0730     137.884826       0.26699
  55    0.3871       74.1877        0.0115      212.0569      212.0683     137.880602       0.32089
  54    0.5430       74.1875        0.0161      212.0449      212.0610     137.873518       0.38343
  53    0.7617       74.1878        0.0226      212.0263      212.0488     137.861020       0.48230
  52     1.069       74.1897        0.0317      211.9965      212.0282     137.838550       0.61806
  51     1.499       74.1949        0.0444      211.9488      211.9932     137.798326       0.78888
  50     2.102       74.2071        0.0620      211.8701      211.9321     137.724943       1.02599
  49     2.949       74.2338        0.0869      211.7353      211.8222     137.588363       1.36147
  48     4.137       74.2839        0.1218      211.5152      211.6371     137.353133       1.67156
  47     5.803       74.3631        0.1706      211.1861      211.3567     136.993613       1.82126
  46     8.139       74.4705        0.2388      210.7354      210.9741     136.503599       1.76972
  45     11.42       74.6013        0.3340      210.1559      210.4898     135.888524       1.58359
  44     16.01       74.7531        0.4668      209.4264      209.8931     135.140051       1.37383
  43     22.46       74.9229        0.6523      208.5155      209.1678     134.244933       1.17129
  42     31.51       75.0863        0.9114      207.4281      208.3395     133.253256       0.92510
  41     44.20       75.1952        1.2738      206.1997      207.4735     132.278287       0.64839
  40     62.00       75.2198        1.7767      204.7997      206.5764     131.356663       0.43696
  39     85.78       75.0932        2.4447      203.3150      205.7598     130.666538       0.24497
  38     109.5       74.8757        3.1193      202.0234      205.1426     130.266937       0.14184
  37     133.1       74.6429        3.7637      200.8408      204.6046     129.961662       0.10963
  36     156.8       74.4035        4.3863      199.7260      204.1123     129.708829       0.08965
  35     180.6       74.1320        5.0434      198.5859      203.6294     129.497387       0.07507
  34     202.8       73.8541        5.6721      197.5309      203.2030     129.348825       0.05641
  33     228.4       73.5623        6.3090      196.4789      202.7879     129.225596       0.04066
  32     252.2       73.2643        6.9432      195.4408      202.3840     129.119668       0.03760
  31     276.0       72.9647        7.5658      194.4310      201.9967     129.032092       0.03109
  30     299.8       72.6585        8.1890      193.4267      201.6157     128.957237       0.02657
  29     323.5       72.3497        8.8094      192.4286      201.2379     128.888248       0.02449
  28     347.3       72.0420        9.4200      191.4464      200.8665     128.824431       0.02265
  27     371.1       71.7367       10.0189      190.4836      200.5024     128.765688       0.02085
  26     394.9       71.4260       10.6220      189.5132      200.1352     128.709242       0.02004
  25     418.6       71.1152       11.2196      188.5503      199.7699     128.654691       0.01936
  24     442.4       70.8040       11.8126      187.5927      199.4052     128.601276       0.01896
  23     466.2       70.4913       12.4030      186.6371      199.0401     128.548738       0.01865
  22     489.9       70.1817       12.9828      185.6961      198.6790     128.497246       0.01828
  21     513.7       69.8700       13.5621      184.7529      198.3150     128.444959       0.01856
  20     537.5       69.5612       14.1320      183.8209      197.9529     128.391663       0.01892
  19     561.3       69.2550       14.6936      182.8981      197.5917     128.336676       0.01952
  18     585.0       68.9448       15.2592      181.9641      197.2233     128.278511       0.02065
  17     608.8       68.6380       15.8153      181.0409      196.8562     128.218242       0.02139
  16     632.6       68.3345       16.3623      180.1276      196.4899     128.155447       0.02229
  15     656.4       68.0285       16.9115      179.2047      196.1162     128.087737       0.02403
  14     680.1       67.7264       17.4518      178.2893      195.7411     128.014722       0.02592
  13     703.9       67.4286       17.9834      177.3803      195.3638     127.935210       0.02822
  12     727.7       67.1309       18.5145      176.4629      194.9774     127.846429       0.03151
  11     751.5       66.8343       19.0446      175.5353      194.5799     127.745577       0.03580
  10     775.2       66.5430       19.5674      174.6074      194.1748     127.631876       0.04036
   9     799.0       66.2576       20.0827      173.6783      193.7610     127.503458       0.04558
   8     822.8       52.8074       39.1804      140.9930      180.1734     127.365995       0.04879
   7     846.6       39.5980       52.3762      114.4581      166.8343     127.236331       0.04603
   6     870.4       26.5846       60.7930       92.9089      153.7018     127.117260       0.04227
   5     894.1       13.7302       65.3134       75.4274      140.7408     127.010662       0.03784
   4     917.9       13.4346       65.3304       75.0122      140.3426     126.908042       0.03643
   3     941.7       13.1387       65.3439       74.5962      139.9401     126.801341       0.03787
   2     965.5       12.8449       65.3537       74.1827      139.5364     126.691448       0.03901
   1     989.2       12.5531       65.3601       73.7718      139.1319     126.578717       0.04001
   0    1013.0       12.2634       65.3633       73.3634      138.7267     126.463361       0.04096



 Wavenumbers: 22650. - 29000. cm-1, ATM      1
 LEVEL PRESSURE   UPWARD FLUX   DIFDOWN FLUX  DIRDOWN FLUX  DOWNWARD FLUX   NET FLUX    HEATING RATE
          mb          W/m2          W/m2          W/m2        W/m2          W/m2       degree/day
  60   .000300       35.5269        0.0000       80.0317       80.0317      44.504803       0.00000
  59    0.1000       35.5254        0.0036       80.0267       80.0302      44.504803       0.00000
  58    0.1403       35.5249        0.0050       80.0247       80.0297      44.504803      -0.00000
  57    0.1968       35.5240        0.0070       80.0218       80.0288      44.504803       0.00000
  56    0.2760       35.5229        0.0099       80.0178       80.0277      44.504803       0.00000
  55    0.3871       35.5212        0.0138       80.0122       80.0260      44.504803       0.00000
  54    0.5430       35.5189        0.0194       80.0043       80.0237      44.504803      -0.00000
  53    0.7617       35.5157        0.0272       79.9933       80.0205      44.504803       0.00000
  52     1.069       35.5112        0.0382       79.9778       80.0160      44.504803       0.00000
  51     1.499       35.5049        0.0535       79.9562       80.0097      44.504803       0.00000
  50     2.102       35.4962        0.0747       79.9263       80.0010      44.504803      -0.00000
  49     2.949       35.4838        0.1047       79.8839       79.9886      44.504803       0.00000
  48     4.137       35.4665        0.1469       79.8244       79.9713      44.504803       0.00000
  47     5.803       35.4422        0.2057       79.7412       79.9470      44.504803      -0.00000
  46     8.139       35.4082        0.2880       79.6249       79.9130      44.504803       0.00000
  45     11.42       35.3605        0.4030       79.4623       79.8653      44.504803       0.00000
  44     16.01       35.2939        0.5634       79.2352       79.7987      44.504803       0.00000
  43     22.46       35.2004        0.7873       78.9179       79.7052      44.504803       0.00000
  42     31.51       35.0694        1.0991       78.4751       79.5742      44.504803      -0.00000
  41     44.20       34.8854        1.5330       77.8573       79.3902      44.504803       0.00000
  40     62.00       34.6290        2.1300       77.0038       79.1338      44.504803      -0.00000
  39     85.78       34.2869        2.9125       75.8793       78.7917      44.504803      -0.00000
  38     109.5       33.9398        3.6907       74.7539       78.4446      44.504803       0.00000
  37     133.1       33.6060        4.4239       73.6869       78.1108      44.504803      -0.00000
  36     156.8       33.2815        5.1226       72.6637       77.7863      44.504803       0.00000
  35     180.6       32.9370        5.8497       71.5922       77.4418      44.504803       0.00000
  34     202.8       32.6056        6.5347       70.5757       77.1104      44.504803       0.00000
  33     228.4       32.2679        7.2186       69.5542       76.7727      44.504803      -0.00000
  32     252.2       31.9296        7.8895       68.5449       76.4344      44.504803       0.00000
  31     276.0       31.5954        8.5383       67.5619       76.1002      44.504803      -0.00000
  30     299.8       31.2587        9.1780       66.5855       75.7635      44.504803       0.00000
  29     323.5       30.9215        9.8051       65.6212       75.4263      44.504803      -0.00000
  28     347.3       30.5874       10.4131       64.6791       75.0923      44.504803       0.00000
  27     371.1       30.2577       11.0003       63.7621       74.7625      44.504803       0.00000
  26     394.9       29.9234       11.5827       62.8455       74.4282      44.504803      -0.00000
  25     418.6       29.5900       12.1509       61.9439       74.0948      44.504803       0.00000
  24     442.4       29.2569       12.7058       61.0558       73.7617      44.504803       0.00000
  23     466.2       28.9229       13.2497       60.1781       73.4277      44.504803      -0.00000
  22     489.9       28.5928       13.7753       59.3223       73.0976      44.504803       0.00000
  21     513.7       28.2606       14.2920       58.4735       72.7654      44.504803       0.00000
  20     537.5       27.9315       14.7922       57.6441       72.4363      44.504803      -0.00000
  19     561.3       27.6049       15.2773       56.8325       72.1097      44.504803       0.00000
  18     585.0       27.2736       15.7577       56.0207       71.7784      44.504803       0.00000
  17     608.8       26.9454       16.2224       55.2278       71.4503      44.504803      -0.00000
  16     632.6       26.6203       16.6719       54.4531       71.1251      44.504803       0.00000
  15     656.4       26.2914       17.1157       53.6804       70.7962      44.504803       0.00000
  14     680.1       25.9652       17.5451       52.9249       70.4700      44.504803      -0.00000
  13     703.9       25.6417       17.9606       52.1859       70.1465      44.504803      -0.00000
  12     727.7       25.3159       18.3687       51.4520       69.8207      44.504803       0.00000
  11     751.5       24.9877       18.7693       50.7232       69.4925      44.504803       0.00000
  10     775.2       24.6612       19.1578       50.0082       69.1660      44.504803       0.00000
   9     799.0       24.3363       19.5344       49.3067       68.8411      44.504803      -0.00000
   8     822.8       19.4939       24.3197       39.6790       63.9987      44.504783       0.00001
   7     846.6       14.7234       27.2963       31.9318       59.2281      44.504765       0.00001
   6     870.4       10.0122       28.8193       25.6976       54.5169      44.504749       0.00001
   5     894.1        5.3491       29.1716       20.6822       49.8538      44.504735       0.00000
   4     917.9        5.0371       29.1507       20.3912       49.5419      44.504735       0.00000
   3     941.7        4.7245       29.1255       20.1038       49.2292      44.504735       0.00000
   2     965.5        4.4135       29.0961       19.8221       48.9182      44.504735       0.00000
   1     989.2        4.1040       29.0629       19.5459       48.6088      44.504735      -0.00000
   0    1013.0        3.7962       29.0258       19.2752       48.3009      44.504735       0.00000



 Wavenumbers: 29000. - 38000. cm-1, ATM      1
 LEVEL PRESSURE   UPWARD FLUX   DIFDOWN FLUX  DIRDOWN FLUX  DOWNWARD FLUX   NET FLUX    HEATING RATE
          mb          W/m2          W/m2          W/m2        W/m2          W/m2       degree/day
  60   .000300        6.7481        0.0000       28.2225       28.2225      21.474381       0.00000
  59    0.1000        6.7463        0.0028       28.1859       28.1887      21.442354       2.71093
  58    0.1403        6.7457        0.0039       28.1585       28.1624      21.416788       5.35386
  57    0.1968        6.7448        0.0055       28.1101       28.1156      21.370843       6.86246
  56    0.2760        6.7437        0.0077       28.0271       28.0348      21.291098       8.49722
  55    0.3871        6.7422        0.0107       27.8913       27.9020      21.159776       9.97523
  54    0.5430        6.7405        0.0148       27.6738       27.6886      20.948100      11.45842
  53    0.7617        6.7385        0.0203       27.3185       27.3388      20.600353      13.41878
  52     1.069        6.7365        0.0276       26.7574       26.7850      20.048427      15.18183
  51     1.499        6.7354        0.0369       25.9466       25.9835      19.248156      15.69510
  50     2.102        6.7366        0.0487       24.8886       24.9372      18.200665      14.64534
  49     2.949        6.7431        0.0640       23.6539       23.7179      16.974796      12.21981
  48     4.137        6.7586        0.0841       22.3800       22.4640      15.705472       9.01988
  47     5.803        6.7852        0.1107       21.1533       21.2640      14.478732       6.21444
  46     8.139        6.8229        0.1466       20.0304       20.1770      13.354092       4.06171
  45     11.42        6.8699        0.1951       19.0179       19.2130      12.343100       2.60294
  44     16.01        6.9266        0.2605       18.0801       18.3406      11.413988       1.70540
  43     22.46        6.9945        0.3492       17.1858       17.5349      10.540492       1.14300
  42     31.51        7.0662        0.4697       16.3448       16.8145       9.748265       0.73904
  41     44.20        7.1230        0.6352       15.5663       16.2015       9.078495       0.44542
  40     62.00        7.1531        0.8599       14.8065       15.6664       8.513280       0.26798
  39     85.78        7.1226        1.1525       14.0925       15.2451       8.122445       0.13873
  38     109.5        7.0506        1.4414       13.5167       14.9581       7.907513       0.07629
  37     133.1        6.9725        1.7069       13.0134       14.7203       7.747709       0.05739
  36     156.8        6.8927        1.9535       12.5564       14.5099       7.617153       0.04630
  35     180.6        6.8012        2.2053       12.1053       14.3107       7.509436       0.03824
  34     202.8        6.7060        2.4389       11.7016       14.1404       7.434429       0.02848
  33     228.4        6.6057        2.6671       11.3112       13.9783       7.372680       0.02037
  32     252.2        6.5033        2.8861       10.9372       13.8234       7.320028       0.01869
  31     276.0        6.4004        3.0934       10.5839       13.6773       7.276962       0.01529
  30     299.8        6.2951        3.2934       10.2424       13.5358       7.240677       0.01288
  29     323.5        6.1893        3.4846        9.9126       13.3972       7.207887       0.01164
  28     347.3        6.0842        3.6653        9.5973       13.2625       7.178288       0.01051
  27     371.1        5.9802        3.8354        9.2967       13.1321       7.151867       0.00938
  26     394.9        5.8745        3.9998        9.0022       13.0019       7.127451       0.00867
  25     418.6        5.7690        4.1557        8.7182       12.8739       7.104888       0.00801
  24     442.4        5.6636        4.3039        8.4437       12.7476       7.083973       0.00742
  23     466.2        5.5578        4.4450        8.1775       12.6225       7.064650       0.00686
  22     489.9        5.4532        4.5773        7.9229       12.5002       7.047002       0.00626
  21     513.7        5.3479        4.7035        7.6749       12.3784       7.030455       0.00587
  20     537.5        5.2437        4.8219        7.4369       12.2587       7.015005       0.00548
  19     561.3        5.1403        4.9328        7.2080       12.1408       7.000532       0.00514
  18     585.0        5.0355        5.0390        6.9831       12.0221       6.986604       0.00494
  17     608.8        4.9318        5.1381        6.7672       11.9053       6.973467       0.00466
  16     632.6        4.8291        5.2304        6.5598       11.7902       6.961057       0.00441
  15     656.4        4.7254        5.3179        6.3565       11.6745       6.949081       0.00425
  14     680.1        4.6226        5.3992        6.1611       11.5603       6.937737       0.00403
  13     703.9        4.5207        5.4745        5.9732       11.4477       6.926981       0.00382
  12     727.7        4.4182        5.5451        5.7897       11.3348       6.916621       0.00368
  11     751.5        4.3150        5.6111        5.6105       11.2217       6.906650       0.00354
  10     775.2        4.2124        5.6719        5.4377       11.1096       6.897168       0.00337
   9     799.0        4.1104        5.7276        5.2710       10.9986       6.888146       0.00320
   8     822.8        3.3259        6.0361        4.1696       10.2057       6.879752       0.00298
   7     846.6        2.5506        6.1245        3.2984        9.4229       6.872388       0.00261
   6     870.4        1.7829        6.0396        2.6093        8.6489       6.866050       0.00225
   5     894.1        1.0213        5.8176        2.0645        7.8820       6.860692       0.00190
   4     917.9        0.9208        5.7758        2.0009        7.7767       6.855882       0.00171
   3     941.7        0.8201        5.7323        1.9391        7.6714       6.851271       0.00164
   2     965.5        0.7200        5.6873        1.8796        7.5669       6.846890       0.00156
   1     989.2        0.6204        5.6409        1.8221        7.4631       6.842725       0.00148
   0    1013.0        0.5213        5.5932        1.7668        7.3600       6.838765       0.00141



 Wavenumbers: 38000. - 50000. cm-1, ATM      1
 LEVEL PRESSURE   UPWARD FLUX   DIFDOWN FLUX  DIRDOWN FLUX  DOWNWARD FLUX   NET FLUX    HEATING RATE
          mb          W/m2          W/m2          W/m2        W/m2          W/m2       degree/day
  60   .000300        0.0069        0.0000        1.7407        1.7407       1.733864       0.00000
  59    0.1000        0.0063        0.0006        1.7198        1.7204       1.714069       1.67562
  58    0.1403        0.0061        0.0008        1.7047        1.7056       1.699408       3.07012
  57    0.1968        0.0059        0.0012        1.6784        1.6796       1.673683       3.84232
  56    0.2760        0.0056        0.0016        1.6341        1.6357       1.630132       4.64062
  55    0.3871        0.0051        0.0021        1.5634        1.5655       1.560405       5.29648
  54    0.5430        0.0046        0.0028        1.4543        1.4571       1.452495       5.84133
  53    0.7617        0.0039        0.0034        1.2861        1.2895       1.285598       6.44019
  52     1.069        0.0031        0.0037        1.0457        1.0495       1.046342       6.58121
  51     1.499        0.0024        0.0037        0.7523        0.7559       0.753565       5.74202
  50     2.102        0.0017        0.0031        0.4664        0.4695       0.467843       3.99478
  49     2.949        0.0012        0.0024        0.2581        0.2604       0.259286       2.07895
  48     4.137        0.0008        0.0017        0.1381        0.1398       0.139011       0.85468
  47     5.803        0.0005        0.0013        0.0728        0.0741       0.073572       0.33150
  46     8.139        0.0003        0.0009        0.0388        0.0397       0.039349       0.12360
  45     11.42        0.0002        0.0006        0.0198        0.0204       0.020194       0.04932
  44     16.01        0.0001        0.0004        0.0090        0.0093       0.009236       0.02011
  43     22.46        0.0000        0.0002        0.0034        0.0036       0.003591       0.00739
  42     31.51        0.0000        0.0001        0.0011        0.0012       0.001179       0.00225
  41     44.20        0.0000        0.0000        0.0003        0.0003       0.000327       0.00057
  40     62.00        0.0000        0.0000        0.0001        0.0001       0.000070       0.00012
  39     85.78        0.0000        0.0000        0.0000        0.0000       0.000012       0.00002
  38     109.5        0.0000        0.0000        0.0000        0.0000       0.000002       0.00000
  37     133.1        0.0000        0.0000        0.0000        0.0000       0.000000       0.00000
  36     156.8        0.0000        0.0000        0.0000        0.0000       0.000000       0.00000
  35     180.6        0.0000        0.0000        0.0000        0.0000       0.000000       0.00000
  34     202.8        0.0000        0.0000        0.0000        0.0000       0.000000       0.00000
  33     228.4        0.0000        0.0000        0.0000        0.0000       0.000000       0.00000
  32     252.2        0.0000        0.0000        0.0000        0.0000       0.000000       0.00000
  31     276.0        0.0000        0.0000        0.0000        0.0000       0.000000       0.00000
  30     299.8        0.0000        0.0000        0.0000        0.0000       0.000000       0.00000
  29     323.5        0.0000        0.0000        0.0000        0.0000       0.000000       0.00000
  28     347.3        0.0000        0.0000        0.0000        0.0000       0.000000       0.00000
  27     371.1        0.0000        0.0000        0.0000        0.0000       0.000000       0.00000
  26     394.9        0.0000        0.0000        0.0000        0.0000       0.000000       0.00000
  25     418.6        0.0000        0.0000        0.0000        0.0000       0.000000       0.00000
  24     442.4        0.0000        0.0000        0.0000        0.0000       0.000000       0.00000
  23     466.2        0.0000        0.0000        0.0000        0.0000       0.000000       0.00000
  22     489.9        0.0000        0.0000        0.0000        0.0000       0.000000       0.00000
  21     513.7        0.0000        0.0000        0.0000        0.0000       0.000000       0.00000
  20     537.5        0.0000        0.0000        0.0000        0.0000       0.000000       0.00000
  19     561.3        0.0000        0.0000        0.0000        0.0000       0.000000       0.00000
  18     585.0        0.0000        0.0000        0.0000        0.0000       0.000000       0.00000
  17     608.8        0.0000        0.0000        0.0000        0.0000       0.000000       0.00000
  16     632.6        0.0000        0.0000        0.0000        0.0000       0.000000       0.00000
  15     656.4        0.0000        0.0000        0.0000        0.0000       0.000000       0.00000
  14     680.1        0.0000        0.0000        0.0000        0.0000       0.000000       0.00000
  13     703.9        0.0000        0.0000        0.0000        0.0000       0.000000       0.00000
  12     727.7        0.0000        0.0000        0.0000        0.0000       0.000000       0.00000
  11     751.5        0.0000        0.0000        0.0000        0.0000       0.000000       0.00000
  10     775.2        0.0000        0.0000        0.0000        0.0000       0.000000       0.00000
   9     799.0        0.0000        0.0000        0.0000        0.0000       0.000000       0.00000
   8     822.8        0.0000        0.0000        0.0000        0.0000       0.000000       0.00000
   7     846.6        0.0000        0.0000        0.0000        0.0000       0.000000       0.00000
   6     870.4        0.0000        0.0000        0.0000        0.0000       0.000000       0.00000
   5     894.1        0.0000        0.0000        0.0000        0.0000       0.000000       0.00000
   4     917.9        0.0000        0.0000        0.0000        0.0000       0.000000       0.00000
   3     941.7        0.0000        0.0000        0.0000        0.0000       0.000000       0.00000
   2     965.5        0.0000        0.0000        0.0000        0.0000       0.000000       0.00000
   1     989.2        0.0000        0.0000        0.0000        0.0000       0.000000       0.00000
   0    1013.0        0.0000        0.0000        0.0000        0.0000       0.000000       0.00000



 Wavenumbers:   820. -  2600. cm-1, ATM      1
 LEVEL PRESSURE   UPWARD FLUX   DIFDOWN FLUX  DIRDOWN FLUX  DOWNWARD FLUX   NET FLUX    HEATING RATE
          mb          W/m2          W/m2          W/m2        W/m2          W/m2       degree/day
  60   .000300        0.6407        0.0000        8.1430        8.1430       7.502287       0.00000
  59    0.1000        0.6407        0.0000        8.1331        8.1331       7.492400       0.83687
  58    0.1403        0.6407        0.0000        8.1309        8.1309       7.490261       0.44786
  57    0.1968        0.6407        0.0000        8.1281        8.1281       7.487421       0.42421
  56    0.2760        0.6407        0.0000        8.1245        8.1245       7.483854       0.38011
  55    0.3871        0.6407        0.0000        8.1201        8.1201       7.479393       0.33886
  54    0.5430        0.6407        0.0000        8.1143        8.1143       7.473637       0.31159
  53    0.7617        0.6407        0.0000        8.1063        8.1063       7.465651       0.30817
  52     1.069        0.6407        0.0000        8.0951        8.0951       7.454402       0.30941
  51     1.499        0.6407        0.0000        8.0799        8.0799       7.439212       0.29791
  50     2.102        0.6407        0.0000        8.0595        8.0595       7.418800       0.28539
  49     2.949        0.6407        0.0000        8.0314        8.0314       7.390660       0.28051
  48     4.137        0.6407        0.0000        7.9935        7.9935       7.352811       0.26896
  47     5.803        0.6407        0.0000        7.9444        7.9444       7.303686       0.24886
  46     8.139        0.6407        0.0000        7.8811        7.8811       7.240404       0.22855
  45     11.42        0.6407        0.0000        7.8004        7.8004       7.159673       0.20785
  44     16.01        0.6407        0.0000        7.7070        7.7070       7.066308       0.17137
  43     22.46        0.6408        0.0000        7.6181        7.6181       6.977320       0.11644
  42     31.51        0.6408        0.0000        7.5468        7.5468       6.906022       0.06651
  41     44.20        0.6408        0.0000        7.4816        7.4816       6.840794       0.04338
  40     62.00        0.6409        0.0000        7.3998        7.3998       6.758922       0.03882
  39     85.78        0.6410        0.0000        7.2958        7.2958       6.654807       0.03696
  38     109.5        0.6411        0.0000        7.1946        7.1946       6.553536       0.03595
  37     133.1        0.6412        0.0000        7.1003        7.1003       6.459074       0.03392
  36     156.8        0.6413        0.0000        7.0126        7.0126       6.371336       0.03111
  35     180.6        0.6414        0.0000        6.9166        6.9166       6.275169       0.03414
  34     202.8        0.6416        0.0000        6.8041        6.8042       6.162595       0.04274
  33     228.4        0.6418        0.0000        6.6630        6.6630       6.021258       0.04663
  32     252.2        0.6420        0.0000        6.4917        6.4917       5.849678       0.06090
  31     276.0        0.6423        0.0000        6.3090        6.3091       5.666761       0.06493
  30     299.8        0.6428        0.0000        6.1153        6.1153       5.472558       0.06893
  29     323.5        0.6434        0.0000        5.9197        5.9197       5.276356       0.06964
  28     347.3        0.6442        0.0000        5.7036        5.7036       5.059432       0.07700
  27     371.1        0.6451        0.0000        5.4648        5.4649       4.819723       0.08509
  26     394.9        0.6463        0.0000        5.2059        5.2060       4.559653       0.09231
  25     418.6        0.6477        0.0000        4.9521        4.9521       4.304372       0.09061
  24     442.4        0.6494        0.0000        4.7233        4.7233       4.073987       0.08178
  23     466.2        0.6512        0.0000        4.5370        4.5370       3.885835       0.06679
  22     489.9        0.6533        0.0000        4.3924        4.3925       3.739190       0.05205
  21     513.7        0.6558        0.0000        4.2764        4.2764       3.620621       0.04209
  20     537.5        0.6588        0.0000        4.1775        4.1776       3.518783       0.03615
  19     561.3        0.6623        0.0000        4.0839        4.0840       3.421707       0.03446
  18     585.0        0.6664        0.0000        3.9882        3.9883       3.321880       0.03543
  17     608.8        0.6712        0.0000        3.8907        3.8907       3.219579       0.03631
  16     632.6        0.6767        0.0000        3.7911        3.7912       3.114484       0.03730
  15     656.4        0.6833        0.0000        3.6867        3.6868       3.003450       0.03941
  14     680.1        0.6913        0.0000        3.5795        3.5795       2.888233       0.04090
  13     703.9        0.7009        0.0000        3.4709        3.4710       2.770090       0.04194
  12     727.7        0.7129        0.0000        3.3598        3.3599       2.646995       0.04369
  11     751.5        0.7285        0.0000        3.2443        3.2443       2.515864       0.04655
  10     775.2        0.7488        0.0000        3.1256        3.1256       2.376857       0.04934
   9     799.0        0.7756        0.0000        3.0033        3.0033       2.227764       0.05292
   8     822.8        0.5823        0.3108        2.3490        2.6598       2.077564       0.05331
   7     846.6        0.3993        0.5080        1.8375        2.3456       1.946279       0.04660
   6     870.4        0.2243        0.6205        1.4374        2.0578       1.833524       0.04002
   5     894.1        0.0537        0.6685        1.1230        1.7915       1.737855       0.03396
   4     917.9        0.0559        0.6334        1.0730        1.7064       1.650504       0.03101
   3     941.7        0.0584        0.5984        1.0226        1.6210       1.562553       0.03122
   2     965.5        0.0615        0.5637        0.9720        1.5357       1.474214       0.03136
   1     989.2        0.0651        0.5294        0.9213        1.4507       1.385689       0.03142
   0    1013.0        0.0694        0.4958        0.8709        1.3667       1.297294       0.03138

  Modules and versions used in this calculation:

       rrtmg_sw.1col.f90:  $Revision$                    rrtmg_sw_init.f90:  $Revision$        
     rrtmgsw_cldprop.f90:  $Revision$                  rrtmgsw_cldprmc.f90:  NOT USED          
     rrtmg_sw_reftra.f90:  $Revision$                  rrtmg_sw_spcvrt.f90:  NOT USED          
     rrtmg_sw_spcvmc.f90:  NOT USED                    rrtmgsw_setcoef.f90:  NOT USED          
     rrtmg_sw_taumol.f90:  $Revision$                  rrtmg_sw_vrtqdr.f90:  NOT USED          
                rrtatm.f:  NOT USED                             util_xxx.f:  NOT USED          
                 extra.f:  NOT USED                       rrtmg_sw_k_g.f90:  $Revision$        

