

 Wavenumbers:   820. - 50000. cm-1, ATM      1
 LEVEL PRESSURE   UPWARD FLUX   DIFDOWN FLUX  DIRDOWN FLUX  DOWNWARD FLUX   NET FLUX    HEATING RATE
          mb          W/m2          W/m2          W/m2        W/m2          W/m2       degree/day
  60   .000300      148.7589        0.0000      837.8224      837.8224     689.063446       0.00000
  59    0.1000      148.7529        0.0102      837.7137      837.7239     688.970969       7.82777
  58    0.1403      148.7506        0.0143      837.6563      837.6706     688.919986      10.67617
  57    0.1968      148.7476        0.0200      837.5614      837.5814     688.833844      12.86673
  56    0.2760      148.7436        0.0280      837.4070      837.4350     688.691464      15.17131
  55    0.3871      148.7383        0.0391      837.1641      837.2032     688.464919      17.20829
  54    0.5430      148.7314        0.0544      836.7876      836.8421     688.110645      19.17750
  53    0.7617      148.7230        0.0754      836.1942      836.2696     687.546525      21.76814
  52     1.069      148.7133        0.1040      835.2926      835.3966     686.683295      23.74485
  51     1.499      148.7037        0.1424      834.0471      834.1895     685.485755      23.48644
  50     2.102      148.6977        0.1939      832.4995      832.6934     683.995738      20.83246
  49     2.949      148.7018        0.2657      830.7483      831.0140     682.312159      16.78238
  48     4.137      148.7245        0.3654      828.8944      829.2598     680.535247      12.62683
  47     5.803      148.7688        0.5035      826.9459      827.4494     678.680670       9.39495
  46     8.139      148.8285        0.6955      824.8978      825.5933     676.764825       6.91920
  45     11.42      148.8906        0.9623      822.7006      823.6629     674.772241       5.13018
  44     16.01      148.9434        1.3324      820.2525      821.5849     672.641470       3.91106
  43     22.46      148.9710        1.8464      817.4463      819.2928     670.321798       3.03537
  42     31.51      148.9262        2.5603      814.2518      816.8120     667.885882       2.27238
  41     44.20      148.7227        3.5532      810.6480      814.2012     665.478468       1.60102
  40     62.00      148.2885        4.9208      806.4553      811.3761     663.087685       1.13351
  39     85.78      147.5121        6.7205      801.7674      808.4879     660.975809       0.74963
  38     109.5      146.6176        8.5192      797.4817      806.0009     659.383324       0.56527
  37     133.1      145.7290       10.2168      793.5510      803.7678     658.038763       0.48285
  36     156.8      144.8502       11.8371      789.8548      801.6919     656.841750       0.42446
  35     180.6      143.8960       13.5284      786.0084      799.5367     655.640778       0.42637
  34     202.8      142.9574       15.1281      782.2124      797.3405     654.383083       0.47752
  33     228.4      141.9907       16.7300      778.0467      794.7767     652.785950       0.52695
  32     252.2      141.0165       18.3063      773.4741      791.7804     650.763896       0.71775
  31     276.0      140.0489       19.8356      768.4389      788.2745     648.225601       0.90099
  30     299.8      139.0710       21.3485      762.7642      784.1127     645.041780       1.13013
  29     323.5      138.0915       22.8361      756.6288      779.4649     641.373408       1.30212
  28     347.3      137.1223       24.2828      750.2254      774.5082     637.385883       1.41541
  27     371.1      136.1675       25.6847      743.7251      769.4098     633.242281       1.47081
  26     394.9      135.2025       27.0795      736.8957      763.9752     628.772781       1.58649
  25     418.6      134.2443       28.4445      729.8721      758.3166     624.072326       1.66847
  24     442.4      133.2926       29.7822      722.6783      752.4605     619.167907       1.74087
  23     466.2      132.3448       31.0977      715.4381      746.5358     614.190977       1.76661
  22     489.9      131.4154       32.3735      708.2772      740.6507     609.235280       1.75907
  21     513.7      130.4904       33.6321      701.0441      734.6762     604.185772       1.79237
  20     537.5      129.5862       34.8547      693.8325      728.6872     599.100939       1.80491
  19     561.3      128.7036       36.0441      686.6319      722.6760     593.972433       1.82041
  18     585.0      127.8247       37.2264      679.3701      716.5965     588.771806       1.84601
  17     608.8      126.9720       38.3742      672.2525      710.6266     583.654626       1.81639
  16     632.6      126.1479       39.4884      665.2624      704.7508     578.602963       1.79313
  15     656.4      125.3413       40.5924      658.1915      698.7838     573.442550       1.83173
  14     680.1      124.5767       41.6637      651.1209      692.7846     568.207960       1.85806
  13     703.9      123.8612       42.7034      644.0582      686.7616     562.900388       1.88397
  12     727.7      123.1959       43.7273      636.8758      680.6031     557.407230       1.94984
  11     751.5      122.6024       44.7345      629.4911      674.2256     551.623160       2.05311
  10     775.2      122.1126       45.7126      621.9804      667.6929     545.580301       2.14497
   9     799.0      121.7606       46.6617      614.3441      661.0058     539.245233       2.24869
   8     822.8       99.5177       73.0528      559.2914      632.3442     532.826425       2.27841
   7     846.6       77.5325       95.2037      509.3230      604.5268     526.994254       2.07018
   6     870.4       55.7600      113.4888      464.0032      577.4920     521.731995       1.86789
   5     894.1       34.1461      128.3096      422.8401      551.1496     517.003570       1.67840
   4     917.9       33.2923      127.8863      417.9828      545.8691     512.576785       1.57133
   3     941.7       32.4503      127.4773      413.2196      540.6969     508.246625       1.53703
   2     965.5       31.6291      127.0812      408.5759      535.6571     504.027957       1.49745
   1     989.2       30.8323      126.6957      404.0479      530.7436     499.911339       1.46092
   0    1013.0       30.0646      126.3184      399.6259      525.9443     495.879765       1.43134



 Wavenumbers:  2600. -  3250. cm-1, ATM      1
 LEVEL PRESSURE   UPWARD FLUX   DIFDOWN FLUX  DIRDOWN FLUX  DOWNWARD FLUX   NET FLUX    HEATING RATE
          mb          W/m2          W/m2          W/m2        W/m2          W/m2       degree/day
  60   .000300        0.4825        0.0000        7.3841        7.3841       6.901524       0.00000
  59    0.1000        0.4825        0.0000        7.3840        7.3840       6.901452       0.00613
  58    0.1403        0.4825        0.0000        7.3840        7.3840       6.901422       0.00614
  57    0.1968        0.4825        0.0000        7.3839        7.3839       6.901381       0.00616
  56    0.2760        0.4825        0.0000        7.3839        7.3839       6.901323       0.00613
  55    0.3871        0.4825        0.0000        7.3838        7.3838       6.901239       0.00641
  54    0.5430        0.4825        0.0000        7.3837        7.3837       6.901114       0.00678
  53    0.7617        0.4825        0.0000        7.3835        7.3835       6.900916       0.00761
  52     1.069        0.4825        0.0000        7.3831        7.3831       6.900586       0.00908
  51     1.499        0.4825        0.0000        7.3825        7.3825       6.899978       0.01193
  50     2.102        0.4825        0.0000        7.3814        7.3814       6.898889       0.01522
  49     2.949        0.4825        0.0000        7.3795        7.3795       6.897004       0.01880
  48     4.137        0.4825        0.0000        7.3765        7.3765       6.893990       0.02142
  47     5.803        0.4825        0.0000        7.3721        7.3721       6.889559       0.02245
  46     8.139        0.4825        0.0000        7.3661        7.3661       6.883552       0.02170
  45     11.42        0.4825        0.0000        7.3586        7.3586       6.876046       0.01932
  44     16.01        0.4825        0.0000        7.3500        7.3500       6.867471       0.01574
  43     22.46        0.4825        0.0000        7.3407        7.3407       6.858157       0.01219
  42     31.51        0.4825        0.0000        7.3297        7.3297       6.847196       0.01023
  41     44.20        0.4826        0.0000        7.3134        7.3134       6.830851       0.01087
  40     62.00        0.4826        0.0000        7.2860        7.2860       6.803455       0.01299
  39     85.78        0.4826        0.0000        7.2438        7.2439       6.761283       0.01497
  38     109.5        0.4826        0.0000        7.1969        7.1969       6.714311       0.01667
  37     133.1        0.4827        0.0001        7.1517        7.1518       6.669104       0.01623
  36     156.8        0.4828        0.0001        7.1092        7.1093       6.626542       0.01509
  35     180.6        0.4828        0.0001        7.0662        7.0663       6.583440       0.01530
  34     202.8        0.4829        0.0001        7.0262        7.0262       6.543309       0.01524
  33     228.4        0.4831        0.0001        6.9846        6.9847       6.501636       0.01375
  32     252.2        0.4833        0.0001        6.9407        6.9408       6.457485       0.01567
  31     276.0        0.4836        0.0001        6.8941        6.8942       6.410663       0.01662
  30     299.8        0.4839        0.0001        6.8424        6.8426       6.358617       0.01847
  29     323.5        0.4844        0.0001        6.7849        6.7850       6.300626       0.02058
  28     347.3        0.4850        0.0001        6.7206        6.7207       6.235714       0.02304
  27     371.1        0.4858        0.0001        6.6496        6.6497       6.163951       0.02547
  26     394.9        0.4867        0.0001        6.5676        6.5677       6.081061       0.02942
  25     418.6        0.4877        0.0001        6.4741        6.4743       5.986520       0.03356
  24     442.4        0.4891        0.0001        6.3671        6.3673       5.878235       0.03844
  23     466.2        0.4906        0.0002        6.2486        6.2487       5.758112       0.04264
  22     489.9        0.4924        0.0002        6.1205        6.1206       5.628243       0.04610
  21     513.7        0.4945        0.0002        5.9812        5.9814       5.486820       0.05020
  20     537.5        0.4971        0.0002        5.8338        5.8340       5.336931       0.05320
  19     561.3        0.5000        0.0002        5.6819        5.6820       5.182020       0.05499
  18     585.0        0.5035        0.0002        5.5274        5.5276       5.024098       0.05606
  17     608.8        0.5075        0.0002        5.3761        5.3762       4.868765       0.05514
  16     632.6        0.5120        0.0002        5.2281        5.2283       4.716251       0.05414
  15     656.4        0.5174        0.0002        5.0791        5.0793       4.561861       0.05480
  14     680.1        0.5238        0.0002        4.9299        4.9300       4.406284       0.05522
  13     703.9        0.5313        0.0002        4.7798        4.7799       4.248632       0.05596
  12     727.7        0.5405        0.0002        4.6253        4.6254       4.084904       0.05812
  11     751.5        0.5521        0.0002        4.4633        4.4634       3.911339       0.06161
  10     775.2        0.5666        0.0002        4.2949        4.2950       3.728384       0.06494
   9     799.0        0.5852        0.0002        4.1205        4.1207       3.535464       0.06848
   8     822.8        0.4631        0.1522        3.6346        3.7868       3.323780       0.07514
   7     846.6        0.3465        0.2889        3.2076        3.4965       3.150046       0.06167
   6     870.4        0.2327        0.3940        2.8322        3.2262       2.993464       0.05558
   5     894.1        0.1208        0.4727        2.5031        2.9757       2.854899       0.04919
   4     917.9        0.1243        0.4517        2.3996        2.8514       2.727053       0.04538
   3     941.7        0.1283        0.4318        2.3005        2.7323       2.603936       0.04370
   2     965.5        0.1330        0.4127        2.2060        2.6187       2.485629       0.04199
   1     989.2        0.1385        0.3945        2.1160        2.5105       2.371972       0.04034
   0    1013.0        0.1451        0.3770        2.0299        2.4069       2.261804       0.03911



 Wavenumbers:  3250. -  4000. cm-1, ATM      1
 LEVEL PRESSURE   UPWARD FLUX   DIFDOWN FLUX  DIRDOWN FLUX  DOWNWARD FLUX   NET FLUX    HEATING RATE
          mb          W/m2          W/m2          W/m2        W/m2          W/m2       degree/day
  60   .000300        0.0043        0.0000       12.4485       12.4485      12.444173       0.00000
  59    0.1000        0.0043        0.0000       12.4290       12.4290      12.424671       1.65079
  58    0.1403        0.0043        0.0000       12.4252       12.4252      12.420957       0.77776
  57    0.1968        0.0043        0.0000       12.4208       12.4208      12.416485       0.66803
  56    0.2760        0.0043        0.0000       12.4156       12.4156      12.411322       0.55013
  55    0.3871        0.0043        0.0000       12.4096       12.4096      12.405289       0.45825
  54    0.5430        0.0043        0.0000       12.4022       12.4022      12.397961       0.39669
  53    0.7617        0.0043        0.0000       12.3928       12.3928      12.388500       0.36506
  52     1.069        0.0043        0.0000       12.3807       12.3807      12.376460       0.33119
  51     1.499        0.0043        0.0000       12.3664       12.3664      12.362102       0.28159
  50     2.102        0.0043        0.0000       12.3498       12.3498      12.345469       0.23256
  49     2.949        0.0043        0.0000       12.3302       12.3302      12.325934       0.19473
  48     4.137        0.0043        0.0000       12.3067       12.3068      12.302469       0.16675
  47     5.803        0.0043        0.0000       12.2766       12.2766      12.272351       0.15257
  46     8.139        0.0043        0.0000       12.2347       12.2348      12.230483       0.15121
  45     11.42        0.0043        0.0000       12.1733       12.1733      12.169069       0.15812
  44     16.01        0.0043        0.0000       12.0830       12.0830      12.078758       0.16577
  43     22.46        0.0043        0.0000       11.9527       11.9527      11.948468       0.17049
  42     31.51        0.0042        0.0000       11.7748       11.7748      11.770583       0.16594
  41     44.20        0.0042        0.0001       11.5551       11.5552      11.550947       0.14607
  40     62.00        0.0042        0.0001       11.3050       11.3051      11.300879       0.11856
  39     85.78        0.0042        0.0001       11.0142       11.0143      11.010091       0.10322
  38     109.5        0.0041        0.0001       10.7175       10.7176      10.713471       0.10529
  37     133.1        0.0041        0.0002       10.4459       10.4460      10.441924       0.09752
  36     156.8        0.0041        0.0002       10.1944       10.1946      10.190536       0.08914
  35     180.6        0.0041        0.0002        9.9218        9.9220       9.917978       0.09676
  34     202.8        0.0040        0.0002        9.5970        9.5973       9.593208       0.12331
  33     228.4        0.0040        0.0002        9.1820        9.1823       9.178271       0.13690
  32     252.2        0.0040        0.0003        8.7004        8.7006       8.696629       0.17096
  31     276.0        0.0040        0.0003        8.1693        8.1695       8.165553       0.18851
  30     299.8        0.0040        0.0003        7.5886        7.5889       7.584899       0.20611
  29     323.5        0.0040        0.0003        6.9823        6.9825       6.978564       0.21522
  28     347.3        0.0040        0.0003        6.3629        6.3631       6.359143       0.21987
  27     371.1        0.0040        0.0002        5.7699        5.7701       5.766155       0.21049
  26     394.9        0.0040        0.0002        5.2041        5.2043       5.200297       0.20086
  25     418.6        0.0040        0.0002        4.6962        4.6964       4.692354       0.18030
  24     442.4        0.0041        0.0002        4.2409        4.2411       4.237039       0.16162
  23     466.2        0.0041        0.0002        3.8328        3.8330       3.828819       0.14490
  22     489.9        0.0042        0.0002        3.4648        3.4650       3.460807       0.13063
  21     513.7        0.0043        0.0002        3.1218        3.1220       3.117638       0.12181
  20     537.5        0.0045        0.0002        2.8040        2.8042       2.799666       0.11287
  19     561.3        0.0047        0.0002        2.5083        2.5084       2.503698       0.10506
  18     585.0        0.0050        0.0001        2.2301        2.2302       2.225229       0.09884
  17     608.8        0.0053        0.0001        1.9731        1.9732       1.967859       0.09136
  16     632.6        0.0058        0.0001        1.7337        1.7338       1.728052       0.08512
  15     656.4        0.0064        0.0001        1.5041        1.5042       1.497825       0.08172
  14     680.1        0.0072        0.0001        1.2888        1.2888       1.281641       0.07674
  13     703.9        0.0083        0.0001        1.0908        1.0908       1.082531       0.07068
  12     727.7        0.0099        0.0001        0.9082        0.9083       0.898347       0.06538
  11     751.5        0.0123        0.0001        0.7390        0.7391       0.726790       0.06090
  10     775.2        0.0159        0.0000        0.5856        0.5857       0.569728       0.05575
   9     799.0        0.0219        0.0000        0.4484        0.4484       0.426570       0.05082
   8     822.8        0.0138        0.0125        0.3034        0.3160       0.302187       0.04415
   7     846.6        0.0080        0.0163        0.1999        0.2162       0.208140       0.03338
   6     870.4        0.0037        0.0153        0.1280        0.1432       0.139560       0.02434
   5     894.1        0.0000        0.0122        0.0794        0.0916       0.091580       0.01703
   4     917.9        0.0000        0.0071        0.0513        0.0584       0.058396       0.01178
   3     941.7        0.0000        0.0039        0.0316        0.0356       0.035546       0.00811
   2     965.5        0.0000        0.0021        0.0186        0.0207       0.020648       0.00529
   1     989.2        0.0001        0.0010        0.0104        0.0115       0.011395       0.00328
   0    1013.0        0.0001        0.0005        0.0056        0.0060       0.005901       0.00195



 Wavenumbers:  4000. -  4650. cm-1, ATM      1
 LEVEL PRESSURE   UPWARD FLUX   DIFDOWN FLUX  DIRDOWN FLUX  DOWNWARD FLUX   NET FLUX    HEATING RATE
          mb          W/m2          W/m2          W/m2        W/m2          W/m2       degree/day
  60   .000300        1.5378        0.0000       14.6183       14.6183      13.080426       0.00000
  59    0.1000        1.5378        0.0000       14.6182       14.6182      13.080416       0.00076
  58    0.1403        1.5378        0.0000       14.6182       14.6182      13.080413       0.00076
  57    0.1968        1.5378        0.0000       14.6182       14.6182      13.080408       0.00077
  56    0.2760        1.5378        0.0000       14.6182       14.6182      13.080401       0.00076
  55    0.3871        1.5378        0.0000       14.6182       14.6182      13.080390       0.00080
  54    0.5430        1.5378        0.0000       14.6182       14.6182      13.080374       0.00085
  53    0.7617        1.5378        0.0000       14.6182       14.6182      13.080350       0.00095
  52     1.069        1.5378        0.0000       14.6181       14.6181      13.080308       0.00114
  51     1.499        1.5378        0.0000       14.6180       14.6181      13.080231       0.00151
  50     2.102        1.5378        0.0000       14.6179       14.6179      13.080090       0.00197
  49     2.949        1.5378        0.0000       14.6176       14.6177      13.079837       0.00252
  48     4.137        1.5378        0.0000       14.6172       14.6172      13.079408       0.00305
  47     5.803        1.5378        0.0000       14.6165       14.6165      13.078716       0.00350
  46     8.139        1.5378        0.0000       14.6154       14.6154      13.077634       0.00391
  45     11.42        1.5378        0.0000       14.6137       14.6138      13.075966       0.00429
  44     16.01        1.5378        0.0001       14.6112       14.6112      13.073438       0.00464
  43     22.46        1.5378        0.0001       14.6074       14.6074      13.069668       0.00493
  42     31.51        1.5378        0.0001       14.6017       14.6018      13.064031       0.00526
  41     44.20        1.5377        0.0002       14.5927       14.5929      13.055130       0.00592
  40     62.00        1.5377        0.0002       14.5788       14.5790      13.041315       0.00655
  39     85.78        1.5377        0.0003       14.5592       14.5596      13.021828       0.00692
  38     109.5        1.5378        0.0004       14.5382       14.5386      13.000778       0.00747
  37     133.1        1.5379        0.0005       14.5177       14.5182      12.980329       0.00734
  36     156.8        1.5380        0.0006       14.4977       14.4983      12.960254       0.00712
  35     180.6        1.5382        0.0007       14.4759       14.4766      12.938415       0.00775
  34     202.8        1.5384        0.0008       14.4536       14.4544      12.916014       0.00851
  33     228.4        1.5387        0.0009       14.4280       14.4289      12.890225       0.00851
  32     252.2        1.5391        0.0010       14.3983       14.3993      12.860192       0.01066
  31     276.0        1.5396        0.0010       14.3635       14.3646      12.824972       0.01250
  30     299.8        1.5403        0.0011       14.3217       14.3228      12.782501       0.01508
  29     323.5        1.5412        0.0012       14.2720       14.2732      12.732027       0.01792
  28     347.3        1.5423        0.0013       14.2129       14.2142      12.671864       0.02136
  27     371.1        1.5436        0.0014       14.1438       14.1451      12.601522       0.02497
  26     394.9        1.5451        0.0015       14.0605       14.0619      12.516860       0.03005
  25     418.6        1.5467        0.0015       13.9639       13.9655      12.418790       0.03481
  24     442.4        1.5485        0.0016       13.8548       13.8564      12.307852       0.03938
  23     466.2        1.5506        0.0017       13.7365       13.7382      12.187570       0.04269
  22     489.9        1.5530        0.0018       13.6136       13.6154      12.062411       0.04443
  21     513.7        1.5557        0.0018       13.4859       13.4878      11.932083       0.04626
  20     537.5        1.5588        0.0019       13.3568       13.3587      11.799851       0.04694
  19     561.3        1.5624        0.0020       13.2261       13.2280      11.665634       0.04764
  18     585.0        1.5667        0.0020       13.0915       13.0935      11.526868       0.04926
  17     608.8        1.5715        0.0021       12.9542       12.9563      11.384777       0.05044
  16     632.6        1.5771        0.0021       12.8109       12.8131      11.236015       0.05280
  15     656.4        1.5837        0.0022       12.6541       12.6563      11.072631       0.05799
  14     680.1        1.5915        0.0022       12.4832       12.4855      10.893990       0.06341
  13     703.9        1.6008        0.0023       12.2977       12.3000      10.699144       0.06916
  12     727.7        1.6123        0.0023       12.0950       12.0973      10.484945       0.07603
  11     751.5        1.6269        0.0024       11.8732       11.8756      10.248650       0.08388
  10     775.2        1.6455        0.0024       11.6374       11.6398       9.994260       0.09030
   9     799.0        1.6697        0.0024       11.3910       11.3934       9.723663       0.09605
   8     822.8        1.3028        0.4821       10.2706       10.7527       9.449933       0.09716
   7     846.6        0.9429        0.8774        9.2691       10.1465       9.203615       0.08743
   6     870.4        0.5884        1.2006        8.3731        9.5737       8.985256       0.07751
   5     894.1        0.2369        1.4588        7.5699        9.0287       8.791760       0.06868
   4     917.9        0.2398        1.4270        7.4257        8.8527       8.612935       0.06348
   3     941.7        0.2431        1.3966        7.2854        8.6820       8.438866       0.06179
   2     965.5        0.2470        1.3671        7.1487        8.5158       8.268808       0.06036
   1     989.2        0.2515        1.3383        7.0151        8.3533       8.101830       0.05926
   0    1013.0        0.2568        1.3101        6.8829        8.1929       7.936105       0.05884



 Wavenumbers:  4650. -  5150. cm-1, ATM      1
 LEVEL PRESSURE   UPWARD FLUX   DIFDOWN FLUX  DIRDOWN FLUX  DOWNWARD FLUX   NET FLUX    HEATING RATE
          mb          W/m2          W/m2          W/m2        W/m2          W/m2       degree/day
  60   .000300        1.1374        0.0000       13.8369       13.8369      12.699488       0.00000
  59    0.1000        1.1374        0.0000       13.8347       13.8347      12.697370       0.17928
  58    0.1403        1.1374        0.0000       13.8339       13.8339      12.696531       0.17564
  57    0.1968        1.1374        0.0000       13.8327       13.8327      12.695366       0.17409
  56    0.2760        1.1374        0.0000       13.8312       13.8312      12.693777       0.16935
  55    0.3871        1.1374        0.0000       13.8290       13.8290      12.691597       0.16558
  54    0.5430        1.1374        0.0000       13.8260       13.8260      12.688661       0.15890
  53    0.7617        1.1374        0.0000       13.8221       13.8221      12.684757       0.15065
  52     1.069        1.1374        0.0000       13.8170       13.8170      12.679604       0.14174
  51     1.499        1.1374        0.0000       13.8105       13.8105      12.673121       0.12716
  50     2.102        1.1374        0.0000       13.8026       13.8026      12.665250       0.11004
  49     2.949        1.1374        0.0000       13.7933       13.7933      12.655952       0.09268
  48     4.137        1.1374        0.0000       13.7830       13.7831      12.645709       0.07279
  47     5.803        1.1374        0.0000       13.7724       13.7724      12.635063       0.05393
  46     8.139        1.1373        0.0000       13.7615       13.7616      12.624238       0.03910
  45     11.42        1.1373        0.0001       13.7497       13.7498      12.612472       0.03029
  44     16.01        1.1373        0.0001       13.7347       13.7348      12.597450       0.02757
  43     22.46        1.1373        0.0001       13.7122       13.7123      12.574974       0.02941
  42     31.51        1.1373        0.0002       13.6758       13.6760      12.538691       0.03385
  41     44.20        1.1373        0.0003       13.6167       13.6170      12.479640       0.03927
  40     62.00        1.1374        0.0004       13.5244       13.5248      12.387361       0.04375
  39     85.78        1.1376        0.0005       13.3944       13.3949      12.257373       0.04614
  38     109.5        1.1378        0.0006       13.2650       13.2657      12.127880       0.04596
  37     133.1        1.1381        0.0007       13.1487       13.1495      12.011425       0.04182
  36     156.8        1.1384        0.0009       13.0449       13.0457      11.907310       0.03692
  35     180.6        1.1389        0.0010       12.9437       12.9447      11.805781       0.03604
  34     202.8        1.1394        0.0011       12.8534       12.8545      11.715117       0.03442
  33     228.4        1.1401        0.0012       12.7658       12.7670      11.626940       0.02909
  32     252.2        1.1409        0.0014       12.6801       12.6815      11.540618       0.03064
  31     276.0        1.1418        0.0015       12.5950       12.5965      11.454660       0.03051
  30     299.8        1.1430        0.0016       12.5053       12.5069      11.363837       0.03224
  29     323.5        1.1445        0.0017       12.4093       12.4110      11.266443       0.03457
  28     347.3        1.1463        0.0018       12.3075       12.3093      11.163021       0.03671
  27     371.1        1.1483        0.0019       12.1993       12.2012      11.052937       0.03908
  26     394.9        1.1507        0.0020       12.0815       12.0836      10.932894       0.04261
  25     418.6        1.1534        0.0021       11.9549       11.9570      10.803581       0.04590
  24     442.4        1.1565        0.0022       11.8185       11.8208      10.664229       0.04946
  23     466.2        1.1601        0.0023       11.6730       11.6753      10.515217       0.05289
  22     489.9        1.1641        0.0024       11.5203       11.5227      10.358573       0.05560
  21     513.7        1.1687        0.0025       11.3577       11.3601      10.191453       0.05932
  20     537.5        1.1739        0.0026       11.1878       11.1904      10.016525       0.06209
  19     561.3        1.1797        0.0026       11.0105       11.0131       9.833402       0.06500
  18     585.0        1.1864        0.0027       10.8249       10.8276       9.641174       0.06823
  17     608.8        1.1939        0.0028       10.6366       10.6394       9.445504       0.06945
  16     632.6        1.2022        0.0028       10.4463       10.4492       9.246937       0.07048
  15     656.4        1.2119        0.0029       10.2497       10.2525       9.040673       0.07322
  14     680.1        1.2229        0.0029       10.0509       10.0539       8.830988       0.07443
  13     703.9        1.2354        0.0029        9.8514        9.8543       8.618950       0.07526
  12     727.7        1.2500        0.0030        9.6483        9.6513       8.401271       0.07727
  11     751.5        1.2675        0.0030        9.4402        9.4432       8.175773       0.08004
  10     775.2        1.2883        0.0030        9.2294        9.2325       7.944209       0.08220
   9     799.0        1.3133        0.0031        9.0169        9.0200       7.706650       0.08432
   8     822.8        1.0273        0.3823        8.1203        8.5026       7.475291       0.08212
   7     846.6        0.7462        0.6936        7.3177        8.0113       7.265076       0.07462
   6     870.4        0.4687        0.9451        6.5996        7.5447       7.075964       0.06713
   5     894.1        0.1936        1.1456        5.9546        7.1002       6.906644       0.06010
   4     917.9        0.1967        1.1171        5.8277        6.9448       6.748087       0.05628
   3     941.7        0.2002        1.0895        5.7036        6.7931       6.592945       0.05507
   2     965.5        0.2041        1.0630        5.5827        6.6457       6.441576       0.05373
   1     989.2        0.2086        1.0373        5.4647        6.5020       6.293449       0.05257
   0    1013.0        0.2136        1.0125        5.3494        6.3620       6.148319       0.05153



 Wavenumbers:  5150. -  6150. cm-1, ATM      1
 LEVEL PRESSURE   UPWARD FLUX   DIFDOWN FLUX  DIRDOWN FLUX  DOWNWARD FLUX   NET FLUX    HEATING RATE
          mb          W/m2          W/m2          W/m2        W/m2          W/m2       degree/day
  60   .000300        2.7137        0.0000       34.6891       34.6891      31.975399       0.00000
  59    0.1000        2.7137        0.0000       34.6886       34.6886      31.974903       0.04199
  58    0.1403        2.7137        0.0000       34.6884       34.6884      31.974702       0.04191
  57    0.1968        2.7137        0.0000       34.6881       34.6881      31.974421       0.04208
  56    0.2760        2.7137        0.0000       34.6877       34.6877      31.974030       0.04165
  55    0.3871        2.7137        0.0000       34.6871       34.6871      31.973480       0.04174
  54    0.5430        2.7137        0.0000       34.6864       34.6864      31.972715       0.04145
  53    0.7617        2.7137        0.0000       34.6853       34.6853      31.971646       0.04125
  52     1.069        2.7137        0.0000       34.6838       34.6838      31.970139       0.04143
  51     1.499        2.7136        0.0000       34.6817       34.6817      31.968050       0.04098
  50     2.102        2.7136        0.0001       34.6787       34.6788      31.965162       0.04037
  49     2.949        2.7136        0.0001       34.6746       34.6747      31.961086       0.04064
  48     4.137        2.7136        0.0001       34.6689       34.6690      31.955416       0.04029
  47     5.803        2.7136        0.0002       34.6610       34.6612      31.947601       0.03959
  46     8.139        2.7135        0.0002       34.6502       34.6504      31.936894       0.03867
  45     11.42        2.7135        0.0003       34.6356       34.6359      31.922359       0.03742
  44     16.01        2.7134        0.0004       34.6159       34.6163      31.902878       0.03576
  43     22.46        2.7134        0.0006       34.5899       34.5905      31.877148       0.03367
  42     31.51        2.7133        0.0008       34.5564       34.5572      31.843937       0.03098
  41     44.20        2.7132        0.0012       34.5139       34.5151      31.801952       0.02792
  40     62.00        2.7130        0.0016       34.4619       34.4635      31.750474       0.02441
  39     85.78        2.7129        0.0023       34.4020       34.4043      31.691357       0.02098
  38     109.5        2.7128        0.0029       34.3491       34.3520      31.639224       0.01850
  37     133.1        2.7127        0.0035       34.3031       34.3066      31.593935       0.01626
  36     156.8        2.7126        0.0041       34.2595       34.2636      31.550984       0.01523
  35     180.6        2.7125        0.0047       34.2031       34.2078      31.495263       0.01978
  34     202.8        2.7125        0.0053       34.1091       34.1145      31.402005       0.03541
  33     228.4        2.7124        0.0059       33.9252       33.9311      31.218705       0.06048
  32     252.2        2.7124        0.0065       33.6087       33.6151      30.902702       0.11217
  31     276.0        2.7125        0.0070       33.1225       33.1295      30.417037       0.17239
  30     299.8        2.7126        0.0074       32.4763       32.4838      29.771176       0.22925
  29     323.5        2.7128        0.0078       31.7610       31.7688      29.056004       0.25386
  28     347.3        2.7132        0.0082       31.0137       31.0220      28.308769       0.26524
  27     371.1        2.7137        0.0085       30.2247       30.2332      27.519539       0.28014
  26     394.9        2.7144        0.0088       29.3520       29.3608      26.646413       0.30992
  25     418.6        2.7153        0.0091       28.4400       28.4491      25.733777       0.32395
  24     442.4        2.7165        0.0093       27.5194       27.5287      24.812213       0.32712
  23     466.2        2.7180        0.0095       26.6227       26.6322      23.914278       0.31873
  22     489.9        2.7198        0.0097       25.7669       25.7765      23.056759       0.30438
  21     513.7        2.7221        0.0098       24.9371       24.9469      22.224848       0.29529
  20     537.5        2.7249        0.0100       24.1537       24.1638      21.438815       0.27901
  19     561.3        2.7285        0.0102       23.4247       23.4349      20.706409       0.25997
  18     585.0        2.7329        0.0103       22.7500       22.7603      20.027463       0.24100
  17     608.8        2.7381        0.0105       22.1480       22.1585      19.420398       0.21548
  16     632.6        2.7444        0.0107       21.6116       21.6223      18.877827       0.19259
  15     656.4        2.7523        0.0108       21.1193       21.1302      18.377890       0.17746
  14     680.1        2.7620        0.0110       20.6722       20.6832      17.921231       0.16209
  13     703.9        2.7740        0.0112       20.2664       20.2776      17.503596       0.14824
  12     727.7        2.7892        0.0114       19.8884       19.8998      17.110633       0.13949
  11     751.5        2.8089        0.0116       19.5264       19.5380      16.729145       0.13541
  10     775.2        2.8345        0.0118       19.1765       19.1883      16.353795       0.13323
   9     799.0        2.8682        0.0119       18.8290       18.8409      15.972741       0.13526
   8     822.8        2.2572        0.8114       17.0360       17.8473      15.590081       0.13583
   7     846.6        1.6571        1.4769       15.4199       16.8968      15.239694       0.12437
   6     870.4        1.0651        2.0233       13.9634       15.9867      14.921648       0.11289
   5     894.1        0.4783        2.4630       12.6507       15.1137      14.635375       0.10162
   4     917.9        0.4814        2.4163       12.4348       14.8511      14.369750       0.09429
   3     941.7        0.4850        2.3726       12.2273       14.5999      14.114868       0.09047
   2     965.5        0.4895        2.3321       12.0307       14.3628      13.873307       0.08574
   1     989.2        0.4951        2.2950       11.8462       14.1412      13.646074       0.08064
   0    1013.0        0.5023        2.2610       11.6739       13.9348      13.432546       0.07581



 Wavenumbers:  6150. -  7700. cm-1, ATM      1
 LEVEL PRESSURE   UPWARD FLUX   DIFDOWN FLUX  DIRDOWN FLUX  DOWNWARD FLUX   NET FLUX    HEATING RATE
          mb          W/m2          W/m2          W/m2        W/m2          W/m2       degree/day
  60   .000300        4.2482        0.0000       64.1588       64.1588      59.910599       0.00000
  59    0.1000        4.2482        0.0000       64.1581       64.1581      59.909939       0.05584
  58    0.1403        4.2482        0.0000       64.1578       64.1578      59.909672       0.05593
  57    0.1968        4.2482        0.0000       64.1574       64.1574      59.909296       0.05625
  56    0.2760        4.2481        0.0000       64.1569       64.1569      59.908772       0.05580
  55    0.3871        4.2481        0.0000       64.1561       64.1562      59.908034       0.05604
  54    0.5430        4.2481        0.0001       64.1551       64.1551      59.907004       0.05578
  53    0.7617        4.2481        0.0001       64.1536       64.1537      59.905562       0.05562
  52     1.069        4.2481        0.0001       64.1515       64.1516      59.903530       0.05590
  51     1.499        4.2480        0.0002       64.1486       64.1487      59.900713       0.05524
  50     2.102        4.2480        0.0002       64.1446       64.1448      59.896825       0.05437
  49     2.949        4.2479        0.0003       64.1389       64.1392      59.891339       0.05468
  48     4.137        4.2478        0.0005       64.1310       64.1315      59.883707       0.05423
  47     5.803        4.2476        0.0007       64.1201       64.1208      59.873158       0.05344
  46     8.139        4.2474        0.0009       64.1051       64.1060      59.858624       0.05249
  45     11.42        4.2471        0.0013       64.0845       64.0858      59.838707       0.05128
  44     16.01        4.2466        0.0018       64.0565       64.0583      59.811657       0.04965
  43     22.46        4.2460        0.0025       64.0187       64.0212      59.775228       0.04767
  42     31.51        4.2451        0.0035       63.9683       63.9718      59.726720       0.04525
  41     44.20        4.2439        0.0049       63.9021       63.9070      59.663176       0.04226
  40     62.00        4.2421        0.0069       63.8170       63.8239      59.581746       0.03861
  39     85.78        4.2398        0.0095       63.7137       63.7232      59.483349       0.03493
  38     109.5        4.2375        0.0121       63.6174       63.6296      59.392044       0.03241
  37     133.1        4.2353        0.0147       63.5307       63.5454      59.310078       0.02943
  36     156.8        4.2331        0.0172       63.4470       63.4641      59.231035       0.02803
  35     180.6        4.2308        0.0198       63.3411       63.3609      59.130088       0.03584
  34     202.8        4.2286        0.0223       63.1774       63.1997      58.971067       0.06038
  33     228.4        4.2265        0.0247       62.8910       62.9158      58.689331       0.09296
  32     252.2        4.2244        0.0271       62.4548       62.4820      58.257590       0.15325
  31     276.0        4.2224        0.0294       61.8034       61.8328      57.610326       0.22975
  30     299.8        4.2207        0.0314       60.8493       60.8807      56.659956       0.33734
  29     323.5        4.2192        0.0332       59.6406       59.6738      55.454596       0.42785
  28     347.3        4.2181        0.0348       58.2994       58.3342      54.116091       0.47511
  27     371.1        4.2175        0.0363       56.9373       56.9737      52.756184       0.48271
  26     394.9        4.2173        0.0377       55.4853       55.5230      51.305685       0.51487
  25     418.6        4.2178        0.0388       53.9434       53.9822      49.764369       0.54710
  24     442.4        4.2191        0.0398       52.3152       52.3550      48.135914       0.57803
  23     466.2        4.2212        0.0406       50.6699       50.7105      46.489346       0.58446
  22     489.9        4.2243        0.0414       49.0609       49.1023      44.878028       0.57195
  21     513.7        4.2287        0.0420       47.4627       47.5048      43.276025       0.56865
  20     537.5        4.2347        0.0426       45.9016       45.9442      41.709499       0.55605
  19     561.3        4.2426        0.0431       44.3828       44.4258      40.183258       0.54175
  18     585.0        4.2527        0.0435       42.9069       42.9503      38.697634       0.52734
  17     608.8        4.2652        0.0439       41.5192       41.5631      37.297905       0.49685
  16     632.6        4.2805        0.0442       40.2123       40.2565      35.976016       0.46922
  15     656.4        4.2997        0.0445       38.9372       38.9817      34.681951       0.45934
  14     680.1        4.3239        0.0448       37.7038       37.7486      33.424738       0.44626
  13     703.9        4.3540        0.0449       36.5148       36.5597      32.205704       0.43271
  12     727.7        4.3926        0.0451       35.3478       35.3929      31.000245       0.42789
  11     751.5        4.4434        0.0451       34.1879       34.2330      29.789618       0.42972
  10     775.2        4.5104        0.0451       33.0529       33.0981      28.587635       0.42665
   9     799.0        4.6009        0.0450       31.9455       31.9906      27.389724       0.42521
   8     822.8        3.5993        1.3680       28.4704       29.8383      26.238994       0.40846
   7     846.6        2.6246        2.4357       25.4354       27.8711      25.246487       0.35230
   6     870.4        1.6691        3.2937       22.7694       26.0632      24.394019       0.30259
   5     894.1        0.7240        3.9602       20.4187       24.3789      23.654899       0.26236
   4     917.9        0.7324        3.8436       19.8790       23.7226      22.990219       0.23593
   3     941.7        0.7424        3.7354       19.3679       23.1033      22.360921       0.22337
   2     965.5        0.7546        3.6350       18.8863       22.5213      21.766729       0.21091
   1     989.2        0.7695        3.5417       18.4317       21.9735      21.204006       0.19970
   0    1013.0        0.7880        3.4546       18.0020       21.4566      20.668543       0.19011



 Wavenumbers:  7700. -  8050. cm-1, ATM      1
 LEVEL PRESSURE   UPWARD FLUX   DIFDOWN FLUX  DIRDOWN FLUX  DOWNWARD FLUX   NET FLUX    HEATING RATE
          mb          W/m2          W/m2          W/m2        W/m2          W/m2       degree/day
  60   .000300        2.1447        0.0000       15.1626       15.1626      13.017880       0.00000
  59    0.1000        2.1448        0.0000       15.1625       15.1625      13.017706       0.01476
  58    0.1403        2.1448        0.0000       15.1624       15.1624      13.017635       0.01485
  57    0.1968        2.1448        0.0000       15.1623       15.1623      13.017535       0.01493
  56    0.2760        2.1448        0.0000       15.1622       15.1622      13.017396       0.01481
  55    0.3871        2.1448        0.0000       15.1620       15.1620      13.017200       0.01487
  54    0.5430        2.1448        0.0000       15.1617       15.1617      13.016926       0.01481
  53    0.7617        2.1448        0.0000       15.1613       15.1614      13.016543       0.01478
  52     1.069        2.1449        0.0000       15.1608       15.1609      13.016002       0.01489
  51     1.499        2.1449        0.0001       15.1601       15.1602      13.015250       0.01475
  50     2.102        2.1450        0.0001       15.1591       15.1592      13.014207       0.01458
  49     2.949        2.1451        0.0001       15.1576       15.1578      13.012728       0.01475
  48     4.137        2.1452        0.0002       15.1556       15.1558      13.010653       0.01475
  47     5.803        2.1454        0.0003       15.1528       15.1531      13.007752       0.01470
  46     8.139        2.1456        0.0004       15.1489       15.1493      13.003695       0.01465
  45     11.42        2.1459        0.0005       15.1434       15.1440      12.998019       0.01461
  44     16.01        2.1464        0.0007       15.1358       15.1365      12.990090       0.01455
  43     22.46        2.1471        0.0010       15.1251       15.1261      12.979005       0.01451
  42     31.51        2.1480        0.0014       15.1101       15.1116      12.963520       0.01445
  41     44.20        2.1494        0.0020       15.0892       15.0913      12.941882       0.01439
  40     62.00        2.1513        0.0028       15.0604       15.0632      12.911937       0.01420
  39     85.78        2.1538        0.0039       15.0223       15.0262      12.872377       0.01404
  38     109.5        2.1565        0.0050       14.9841       14.9891      12.832639       0.01411
  37     133.1        2.1591        0.0060       14.9478       14.9539      12.794793       0.01359
  36     156.8        2.1616        0.0070       14.9129       14.9200      12.758342       0.01293
  35     180.6        2.1644        0.0081       14.8763       14.8844      12.720014       0.01361
  34     202.8        2.1671        0.0091       14.8414       14.8506      12.683464       0.01388
  33     228.4        2.1699        0.0102       14.8062       14.8164      12.646500       0.01220
  32     252.2        2.1728        0.0112       14.7713       14.7825      12.609727       0.01305
  31     276.0        2.1756        0.0122       14.7370       14.7492      12.573615       0.01282
  30     299.8        2.1786        0.0133       14.7027       14.7160      12.537405       0.01285
  29     323.5        2.1816        0.0143       14.6685       14.6828      12.501205       0.01285
  28     347.3        2.1847        0.0153       14.6347       14.6500      12.465330       0.01273
  27     371.1        2.1878        0.0163       14.6014       14.6177      12.429856       0.01259
  26     394.9        2.1911        0.0173       14.5675       14.5849      12.393736       0.01282
  25     418.6        2.1945        0.0183       14.5336       14.5520      12.357446       0.01288
  24     442.4        2.1980        0.0193       14.4995       14.5189      12.320844       0.01299
  23     466.2        2.2017        0.0203       14.4651       14.4855      12.283777       0.01316
  22     489.9        2.2054        0.0213       14.4307       14.4521      12.246629       0.01319
  21     513.7        2.2094        0.0223       14.3957       14.4180      12.208616       0.01349
  20     537.5        2.2135        0.0233       14.3603       14.3836      12.170167       0.01365
  19     561.3        2.2177        0.0242       14.3246       14.3488      12.131113       0.01386
  18     585.0        2.2223        0.0252       14.2875       14.3127      12.090493       0.01442
  17     608.8        2.2270        0.0262       14.2500       14.2762      12.049199       0.01466
  16     632.6        2.2319        0.0271       14.2119       14.2390      12.007098       0.01494
  15     656.4        2.2373        0.0281       14.1722       14.2003      11.963012       0.01565
  14     680.1        2.2429        0.0290       14.1314       14.1603      11.917426       0.01618
  13     703.9        2.2489        0.0299       14.0891       14.1190      11.870060       0.01681
  12     727.7        2.2555        0.0308       14.0446       14.0754      11.819913       0.01780
  11     751.5        2.2627        0.0317       13.9973       14.0290      11.766291       0.01903
  10     775.2        2.2706        0.0326       13.9473       13.9799      11.709318       0.02022
   9     799.0        2.2793        0.0335       13.8944       13.9279      11.648560       0.02157
   8     822.8        1.8108        0.6390       12.7570       13.3960      11.585166       0.02250
   7     846.6        1.3462        1.1571       11.7126       12.8698      11.523519       0.02188
   6     870.4        0.8850        1.5956       10.7538       12.3494      11.464388       0.02099
   5     894.1        0.4266        1.9646        9.8699       11.8345      11.407923       0.02004
   4     917.9        0.4279        1.9545        9.8250       11.7795      11.351613       0.01999
   3     941.7        0.4294        1.9442        9.7785       11.7227      11.293289       0.02070
   2     965.5        0.4311        1.9335        9.7308       11.6643      11.233248       0.02131
   1     989.2        0.4329        1.9226        9.6818       11.6043      11.171494       0.02192
   0    1013.0        0.4348        1.9114        9.6314       11.5428      11.107968       0.02255



 Wavenumbers:  8050. - 12850. cm-1, ATM      1
 LEVEL PRESSURE   UPWARD FLUX   DIFDOWN FLUX  DIRDOWN FLUX  DOWNWARD FLUX   NET FLUX    HEATING RATE
          mb          W/m2          W/m2          W/m2        W/m2          W/m2       degree/day
  60   .000300       27.5589        0.0000      212.2880      212.2880     184.729109       0.00000
  59    0.1000       27.5587        0.0002      212.2876      212.2878     184.729109       0.00000
  58    0.1403       27.5586        0.0003      212.2874      212.2877     184.729109      -0.00000
  57    0.1968       27.5585        0.0004      212.2872      212.2876     184.729109      -0.00000
  56    0.2760       27.5584        0.0006      212.2869      212.2875     184.729109       0.00000
  55    0.3871       27.5582        0.0009      212.2864      212.2873     184.729109       0.00000
  54    0.5430       27.5579        0.0012      212.2858      212.2870     184.729109       0.00000
  53    0.7617       27.5576        0.0017      212.2850      212.2867     184.729109       0.00000
  52     1.069       27.5570        0.0024      212.2837      212.2861     184.729109       0.00000
  51     1.499       27.5563        0.0033      212.2820      212.2854     184.729109      -0.00000
  50     2.102       27.5553        0.0047      212.2797      212.2844     184.729109      -0.00000
  49     2.949       27.5538        0.0066      212.2763      212.2829     184.729109       0.00000
  48     4.137       27.5517        0.0092      212.2717      212.2809     184.729109      -0.00000
  47     5.803       27.5489        0.0129      212.2651      212.2780     184.729109       0.00000
  46     8.139       27.5449        0.0181      212.2559      212.2740     184.729109      -0.00000
  45     11.42       27.5393        0.0253      212.2430      212.2684     184.729109       0.00000
  44     16.01       27.5314        0.0355      212.2250      212.2605     184.729109       0.00000
  43     22.46       27.5204        0.0497      212.1998      212.2495     184.729109      -0.00000
  42     31.51       27.5049        0.0697      212.1643      212.2340     184.729109       0.00000
  41     44.20       27.4832        0.0978      212.1145      212.2123     184.729109       0.00000
  40     62.00       27.4529        0.1369      212.0450      212.1820     184.729109      -0.00000
  39     85.78       27.4123        0.1892      211.9522      212.1414     184.729109       0.00000
  38     109.5       27.3712        0.2424      211.8451      212.0875     184.716260       0.00456
  37     133.1       27.3317        0.2935      211.7421      212.0356     184.703945       0.00442
  36     156.8       27.2931        0.3433      211.6412      211.9844     184.691293       0.00449
  35     180.6       27.2521        0.3962      211.5292      211.9253     184.673190       0.00643
  34     202.8       27.2127        0.4470      211.4041      211.8512     184.638488       0.01318
  33     228.4       27.1725        0.4989      211.2349      211.7338     184.561317       0.02546
  32     252.2       27.1324        0.5508      211.0003      211.5511     184.418663       0.05064
  31     276.0       27.0932        0.6018      210.6760      211.2778     184.184561       0.08310
  30     299.8       27.0544        0.6530      210.2328      210.8857     183.831302       0.12539
  29     323.5       27.0165        0.7039      209.6743      210.3782     183.361650       0.16671
  28     347.3       26.9803        0.7539      209.0175      209.7714     182.791108       0.20252
  27     371.1       26.9462        0.8029      208.2872      209.0901     182.143923       0.22972
  26     394.9       26.9137        0.8520      207.4416      208.2936     181.379947       0.27118
  25     418.6       26.8838        0.9003      206.4758      207.3762     180.492394       0.31504
  24     442.4       26.8571        0.9478      205.3737      206.3215     179.464446       0.36488
  23     466.2       26.8338        0.9947      204.1488      205.1435     178.309648       0.40991
  22     489.9       26.8150        1.0401      202.8236      203.8638     177.048783       0.44756
  21     513.7       26.8011        1.0849      201.3667      202.4517     175.650526       0.49632
  20     537.5       26.7936        1.1283      199.7935      200.9218     174.128131       0.54039
  19     561.3       26.7935        1.1701      198.0998      199.2699     172.476358       0.58631
  18     585.0       26.8016        1.2115      196.2781      197.4896     170.688017       0.63479
  17     608.8       26.8188        1.2515      194.3934      195.6450     168.826223       0.66086
  16     632.6       26.8463        1.2902      192.4530      193.7431     166.896815       0.68486
  15     656.4       26.8879        1.3281      190.4000      191.7281     164.840210       0.73001
  14     680.1       26.9469        1.3643      188.2528      189.6171     162.670120       0.77029
  13     703.9       27.0272        1.3988      186.0204      187.4192     160.391906       0.80867
  12     727.7       27.1359        1.4319      183.6647      185.0966     157.960744       0.86296
  11     751.5       27.2841        1.4634      181.1466      182.6100     155.325897       0.93526
  10     775.2       27.4824        1.4926      178.4925      179.9851     152.502703       1.00212
   9     799.0       27.7473        1.5195      175.7106      177.2302     149.482833       1.07193
   8     822.8       21.9668        8.9918      159.3559      168.3477     146.380888       1.10106
   7     846.6       16.2779       15.2374      144.5628      159.8002     143.522299       1.01468
   6     870.4       10.6598       20.3798      131.2033      151.5831     140.923391       0.92251
   5     894.1        5.0881       24.5506      119.1176      143.6682     138.580092       0.83177
   4     917.9        5.1013       24.1678      117.3130      141.4808     136.379528       0.78111
   3     941.7        5.1213       23.7985      115.5465      139.3450     134.223730       0.76522
   2     965.5        5.1496       23.4435      113.8285      137.2720     132.122480       0.74586
   1     989.2        5.1879       23.1015      112.1579      135.2594     130.071488       0.72786
   0    1013.0        5.2388       22.7713      110.5305      133.3018     128.063023       0.71307



 Wavenumbers: 12850. - 16000. cm-1, ATM      1
 LEVEL PRESSURE   UPWARD FLUX   DIFDOWN FLUX  DIRDOWN FLUX  DOWNWARD FLUX   NET FLUX    HEATING RATE
          mb          W/m2          W/m2          W/m2        W/m2          W/m2       degree/day
  60   .000300       22.7135        0.0000      133.0172      133.0172     110.303635       0.00000
  59    0.1000       22.7132        0.0005      133.0095      133.0100     110.296781       0.58008
  58    0.1403       22.7131        0.0007      133.0064      133.0071     110.293996       0.58330
  57    0.1968       22.7130        0.0010      133.0021      133.0031     110.290083       0.58448
  56    0.2760       22.7128        0.0013      132.9962      132.9975     110.284684       0.57526
  55    0.3871       22.7126        0.0019      132.9880      132.9899     110.277229       0.56628
  54    0.5430       22.7124        0.0026      132.9769      132.9795     110.267120       0.54721
  53    0.7617       22.7122        0.0037      132.9618      132.9655     110.253310       0.53291
  52     1.069       22.7122        0.0052      132.9413      132.9465     110.234286       0.52330
  51     1.499       22.7125        0.0073      132.9135      132.9207     110.208209       0.51141
  50     2.102       22.7139        0.0101      132.8748      132.8850     110.171126       0.51847
  49     2.949       22.7173        0.0142      132.8176      132.8318     110.114524       0.56423
  48     4.137       22.7241        0.0199      132.7325      132.7525     110.028378       0.61215
  47     5.803       22.7351        0.0279      132.6115      132.6394     109.904345       0.62833
  46     8.139       22.7499        0.0391      132.4493      132.4884     109.738507       0.59894
  45     11.42       22.7675        0.0547      132.2424      132.2972     109.529641       0.53775
  44     16.01       22.7870        0.0765      131.9828      132.0593     109.272237       0.47247
  43     22.46       22.8074        0.1070      131.6592      131.7662     108.958799       0.41015
  42     31.51       22.8238        0.1495      131.2747      131.4242     108.600416       0.33432
  41     44.20       22.8274        0.2092      130.8450      131.0542     108.226838       0.24844
  40     62.00       22.8117        0.2921      130.3669      130.6590     107.847300       0.17994
  39     85.78       22.7649        0.4026      129.8828      130.2854     107.520539       0.11599
  38     109.5       22.7076        0.5151      129.4797      129.9948     107.287176       0.08283
  37     133.1       22.6479        0.6230      129.1217      129.7448     107.096865       0.06834
  36     156.8       22.5874        0.7278      128.7892      129.5170     106.929625       0.05930
  35     180.6       22.5198        0.8388      128.4511      129.2899     106.770130       0.05662
  34     202.8       22.4516        0.9454      128.1377      129.0831     106.631528       0.05262
  33     228.4       22.3805        1.0538      127.8216      128.8754     106.494842       0.04510
  32     252.2       22.3085        1.1622      127.5049      128.6671     106.358626       0.04835
  31     276.0       22.2366        1.2690      127.1922      128.4612     106.224659       0.04755
  30     299.8       22.1636        1.3764      126.8751      128.2515     106.087901       0.04854
  29     323.5       22.0907        1.4837      126.5537      128.0374     105.946728       0.05011
  28     347.3       22.0186        1.5897      126.2298      127.8194     105.800789       0.05180
  27     371.1       21.9479        1.6939      125.9047      127.5987     105.650752       0.05326
  26     394.9       21.8769        1.7993      125.5688      127.3681     105.491263       0.05661
  25     418.6       21.8069        1.9041      125.2257      127.1298     105.322916       0.05976
  24     442.4       21.7381        2.0083      124.8736      126.8818     105.143775       0.06359
  23     466.2       21.6703        2.1123      124.5111      126.6233     104.953023       0.06771
  22     489.9       21.6048        2.2146      124.1420      126.3566     104.751842       0.07141
  21     513.7       21.5407        2.3170      123.7577      126.0746     104.533899       0.07736
  20     537.5       21.4795        2.4178      123.3614      125.7792     104.299719       0.08312
  19     561.3       21.4213        2.5171      122.9509      125.4680     104.046664       0.08982
  18     585.0       21.3652        2.6171      122.5175      125.1347     103.769431       0.09841
  17     608.8       21.3123        2.7154      122.0752      124.7906     103.478328       0.10333
  16     632.6       21.2628        2.8119      121.6228      124.4347     103.171944       0.10875
  15     656.4       21.2164        2.9085      121.1473      124.0558     102.839435       0.11803
  14     680.1       21.1752        3.0031      120.6531      123.6562     102.481001       0.12723
  13     703.9       21.1401        3.0956      120.1376      123.2332     102.093104       0.13769
  12     727.7       21.1117        3.1873      119.5892      122.7765     101.664743       0.15205
  11     751.5       21.0919        3.2780      119.0038      122.2817     101.189864       0.16856
  10     775.2       21.0826        3.3662      118.3848      121.7510     100.668402       0.18510
   9     799.0       21.0860        3.4518      117.7284      121.1802     100.094207       0.20382
   8     822.8       16.9997        8.5770      107.9073      116.4843      99.484554       0.21640
   7     846.6       12.9504       12.9551       98.8905      111.8456      98.895294       0.20916
   6     870.4        8.9327       16.6502       90.6179      107.2681      98.335347       0.19876
   5     894.1        4.9421       19.7128       83.0379      102.7507      97.808585       0.18698
   4     917.9        4.8891       19.6570       82.5231      102.1801      97.291068       0.18370
   3     941.7        4.8378       19.5994       82.0019      101.6012      96.763425       0.18729
   2     965.5        4.7890       19.5402       81.4784      101.0186      96.229596       0.18949
   1     989.2        4.7428       19.4798       80.9535      100.4332      95.690395       0.19135
   0    1013.0        4.6995       19.4180       80.4274       99.8454      95.145915       0.19331



 Wavenumbers: 16000. - 22650. cm-1, ATM      1
 LEVEL PRESSURE   UPWARD FLUX   DIFDOWN FLUX  DIRDOWN FLUX  DOWNWARD FLUX   NET FLUX    HEATING RATE
          mb          W/m2          W/m2          W/m2        W/m2          W/m2       degree/day
  60   .000300       51.5043        0.0000      212.0812      212.0812     160.576848       0.00000
  59    0.1000       51.5028        0.0027      212.0760      212.0788     160.575956       0.07549
  58    0.1403       51.5023        0.0038      212.0737      212.0775     160.575241       0.14962
  57    0.1968       51.5016        0.0054      212.0701      212.0755     160.573949       0.19302
  56    0.2760       51.5007        0.0076      212.0648      212.0724     160.571677       0.24213
  55    0.3871       51.4996        0.0106      212.0569      212.0675     160.567845       0.29101
  54    0.5430       51.4984        0.0149      212.0449      212.0598     160.561422       0.34773
  53    0.7617       51.4971        0.0209      212.0263      212.0472     160.550087       0.43739
  52     1.069       51.4962        0.0293      211.9965      212.0259     160.529710       0.56049
  51     1.499       51.4967        0.0411      211.9488      211.9899     160.493234       0.71538
  50     2.102       51.5008        0.0574      211.8701      211.9275     160.426693       0.93034
  49     2.949       51.5129        0.0805      211.7353      211.8158     160.302859       1.23441
  48     4.137       51.5384        0.1128      211.5152      211.6280     160.089619       1.51529
  47     5.803       51.5802        0.1579      211.1861      211.3440     159.763800       1.65054
  46     8.139       51.6365        0.2210      210.7354      210.9564     159.319897       1.60319
  45     11.42       51.7019        0.3091      210.1559      210.4649     158.762997       1.43382
  44     16.01       51.7725        0.4319      209.4264      209.8583     158.085766       1.24307
  43     22.46       51.8424        0.6034      208.5155      209.1189     157.276519       1.05893
  42     31.51       51.8900        0.8427      207.4281      208.2709     156.380862       0.83553
  41     44.20       51.8758        1.1773      206.1997      207.3770     155.501270       0.58496
  40     62.00       51.7702        1.6413      204.7997      206.4410     154.670792       0.39374
  39     85.78       51.5224        2.2570      203.3150      205.5720     154.049668       0.22047
  38     109.5       51.2111        2.8782      202.0234      204.9015     153.690374       0.12753
  37     133.1       50.8958        3.4711      200.8408      204.3120     153.416130       0.09848
  36     156.8       50.5803        4.0435      199.7260      203.7695     153.189177       0.08048
  35     180.6       50.2336        4.6472      198.5859      203.2331     152.999525       0.06733
  34     202.8       49.8887        5.2242      197.5309      202.7551     152.866371       0.05056
  33     228.4       49.5313        5.8084      196.4789      202.2873     152.755997       0.03642
  32     252.2       49.1693        6.3896      195.4408      201.8305     152.661182       0.03366
  31     276.0       48.8079        6.9598      194.4310      201.3908     152.582838       0.02781
  30     299.8       48.4409        7.5301      193.4267      200.9568     152.515907       0.02376
  29     323.5       48.0716        8.0973      192.4286      200.5259     152.454246       0.02189
  28     347.3       47.7045        8.6552      191.4464      200.1017     152.397225       0.02024
  27     371.1       47.3407        9.2019      190.4836      199.6855     152.344751       0.01863
  26     394.9       46.9710        9.7521      189.5132      199.2653     152.294334       0.01790
  25     418.6       46.6014       10.2967      188.5503      198.8470     152.245614       0.01729
  24     442.4       46.2315       10.8368      187.5927      198.4294     152.197909       0.01693
  23     466.2       45.8601       11.3740      186.6371      198.0111     152.150986       0.01666
  22     489.9       45.4923       11.9011      185.6961      197.5973     152.104996       0.01632
  21     513.7       45.1219       12.4273      184.7529      197.1802     152.058296       0.01658
  20     537.5       44.7548       12.9446      183.8209      196.7655     152.010695       0.01690
  19     561.3       44.3903       13.4539      182.8981      196.3519     151.961590       0.01743
  18     585.0       44.0207       13.9662      181.9641      195.9304     151.909663       0.01843
  17     608.8       43.6546       14.4696      181.0409      195.5105     151.855882       0.01909
  16     632.6       43.2921       14.9643      180.1276      195.0920     151.799880       0.01988
  15     656.4       42.9257       15.4605      179.2047      194.6652     151.739538       0.02142
  14     680.1       42.5630       15.9482      178.2893      194.2375     151.674528       0.02308
  13     703.9       42.2042       16.4276      177.3803      193.8080     151.603814       0.02510
  12     727.7       41.8440       16.9060      176.4629      193.3689     151.524969       0.02799
  11     751.5       41.4829       17.3832      175.5353      192.9185     151.435556       0.03174
  10     775.2       41.1257       17.8532      174.6074      192.4607     151.334952       0.03571
   9     799.0       40.7727       18.3160      173.6783      191.9943     151.221591       0.04024
   8     822.8       34.2321       26.0730      159.2572      185.3302     151.098039       0.04386
   7     846.6       27.7384       32.6933      146.0207      178.7140     150.975628       0.04345
   6     870.4       21.2899       38.2484      133.8977      172.1461     150.856188       0.04240
   5     894.1       14.8821       42.8418      122.7811      165.6229     150.740811       0.04095
   4     917.9       14.5248       43.0442      122.1051      165.1494     150.624585       0.04126
   3     941.7       14.1672       43.2428      121.4280      164.6709     150.503692       0.04291
   2     965.5       13.8120       43.4362      120.7549      164.1911     150.379135       0.04421
   1     989.2       13.4591       43.6246      120.0859      163.7104     150.251314       0.04536
   0    1013.0       13.1087       43.8079      119.4212      163.2292     150.120465       0.04646



 Wavenumbers: 22650. - 29000. cm-1, ATM      1
 LEVEL PRESSURE   UPWARD FLUX   DIFDOWN FLUX  DIRDOWN FLUX  DOWNWARD FLUX   NET FLUX    HEATING RATE
          mb          W/m2          W/m2          W/m2        W/m2          W/m2       degree/day
  60   .000300       28.3752        0.0000       80.0317       80.0317      51.656519       0.00000
  59    0.1000       28.3735        0.0034       80.0267       80.0300      51.656519       0.00000
  58    0.1403       28.3729        0.0047       80.0247       80.0294      51.656519      -0.00000
  57    0.1968       28.3719        0.0066       80.0218       80.0284      51.656519       0.00000
  56    0.2760       28.3706        0.0093       80.0178       80.0271      51.656519       0.00000
  55    0.3871       28.3687        0.0131       80.0122       80.0252      51.656519       0.00000
  54    0.5430       28.3661        0.0183       80.0043       80.0226      51.656519      -0.00000
  53    0.7617       28.3625        0.0257       79.9933       80.0190      51.656519       0.00000
  52     1.069       28.3573        0.0360       79.9778       80.0139      51.656519       0.00000
  51     1.499       28.3502        0.0505       79.9562       80.0067      51.656519       0.00000
  50     2.102       28.3403        0.0705       79.9263       79.9968      51.656519       0.00000
  49     2.949       28.3262        0.0988       79.8839       79.9827      51.656519       0.00000
  48     4.137       28.3065        0.1386       79.8244       79.9630      51.656519      -0.00000
  47     5.803       28.2788        0.1941       79.7412       79.9354      51.656519       0.00000
  46     8.139       28.2402        0.2718       79.6249       79.8967      51.656519      -0.00000
  45     11.42       28.1860        0.3802       79.4623       79.8425      51.656519       0.00000
  44     16.01       28.1102        0.5315       79.2352       79.7667      51.656519       0.00000
  43     22.46       28.0039        0.7425       78.9179       79.6605      51.656519       0.00000
  42     31.51       27.8549        1.0363       78.4751       79.5114      51.656519      -0.00000
  41     44.20       27.6457        1.4449       77.8573       79.3022      51.656519      -0.00000
  40     62.00       27.3539        2.0066       77.0038       79.0105      51.656519       0.00000
  39     85.78       26.9647        2.7420       75.8793       78.6212      51.656519       0.00000
  38     109.5       26.5696        3.4722       74.7539       78.2261      51.656519       0.00000
  37     133.1       26.1896        4.1592       73.6869       77.8461      51.656519       0.00000
  36     156.8       25.8202        4.8130       72.6637       77.4767      51.656519       0.00000
  35     180.6       25.4278        5.4922       71.5922       77.0843      51.656519       0.00000
  34     202.8       25.0503        6.1311       70.5757       76.7068      51.656519       0.00000
  33     228.4       24.6655        6.7679       69.5542       76.3220      51.656519      -0.00000
  32     252.2       24.2798        7.3915       68.5449       75.9364      51.656519       0.00000
  31     276.0       23.8989        7.9935       67.5619       75.5554      51.656519       0.00000
  30     299.8       23.5150        8.5860       66.5855       75.1716      51.656519      -0.00000
  29     323.5       23.1305        9.1658       65.6212       74.7870      51.656519       0.00000
  28     347.3       22.7494        9.7268       64.6791       74.4059      51.656519      -0.00000
  27     371.1       22.3732       10.2675       63.7621       74.0297      51.656519       0.00000
  26     394.9       21.9917       10.8028       62.8455       73.6482      51.656519       0.00000
  25     418.6       21.6111       11.3237       61.9439       73.2676      51.656519      -0.00000
  24     442.4       21.2308       11.8315       61.0558       72.8874      51.656519       0.00000
  23     466.2       20.8496       12.3280       60.1781       72.5061      51.656519      -0.00000
  22     489.9       20.4725       12.8067       59.3223       72.1290      51.656519       0.00000
  21     513.7       20.0931       13.2761       58.4735       71.7496      51.656519      -0.00000
  20     537.5       19.7171       13.7295       57.6441       71.3736      51.656519       0.00000
  19     561.3       19.3438       14.1679       56.8325       71.0004      51.656519      -0.00000
  18     585.0       18.9652       14.6010       56.0207       70.6217      51.656519       0.00000
  17     608.8       18.5901       15.0188       55.2278       70.2466      51.656519       0.00000
  16     632.6       18.2183       15.4217       54.4531       69.8748      51.656519      -0.00000
  15     656.4       17.8422       15.8183       53.6804       69.4987      51.656519       0.00000
  14     680.1       17.4691       16.2008       52.9249       69.1256      51.656519      -0.00000
  13     703.9       17.0990       16.5697       52.1859       68.7556      51.656519       0.00000
  12     727.7       16.7263       16.9308       51.4520       68.3828      51.656519      -0.00000
  11     751.5       16.3508       17.2841       50.7232       68.0073      51.656519      -0.00000
  10     775.2       15.9771       17.6254       50.0082       67.6336      51.656519       0.00000
   9     799.0       15.6052       17.9550       49.3067       67.2617      51.656519       0.00000
   8     822.8       13.1469       19.9874       44.8160       64.8034      51.656512       0.00000
   7     846.6       10.7042       21.6257       40.7350       62.3607      51.656505       0.00000
   6     870.4        8.2777       22.9008       37.0334       59.9342      51.656499       0.00000
   5     894.1        5.8658       23.8536       33.6687       57.5223      51.656493       0.00000
   4     917.9        5.4995       23.9610       33.1950       57.1560      51.656493      -0.00000
   3     941.7        5.1324       24.0617       32.7271       56.7889      51.656493      -0.00000
   2     965.5        4.7672       24.1552       32.2685       56.4237      51.656493       0.00000
   1     989.2        4.4040       24.2415       31.8190       56.0605      51.656493       0.00000
   0    1013.0        4.0427       24.3210       31.3782       55.6992      51.656493       0.00000



 Wavenumbers: 29000. - 38000. cm-1, ATM      1
 LEVEL PRESSURE   UPWARD FLUX   DIFDOWN FLUX  DIRDOWN FLUX  DOWNWARD FLUX   NET FLUX    HEATING RATE
          mb          W/m2          W/m2          W/m2        W/m2          W/m2       degree/day
  60   .000300        5.9984        0.0000       28.2225       28.2225      22.224140       0.00000
  59    0.1000        5.9965        0.0027       28.1859       28.1886      22.192122       2.71016
  58    0.1403        5.9958        0.0039       28.1585       28.1624      22.166563       5.35230
  57    0.1968        5.9949        0.0054       28.1101       28.1155      22.120633       6.86040
  56    0.2760        5.9937        0.0075       28.0271       28.0346      22.040912       8.49457
  55    0.3871        5.9922        0.0105       27.8913       27.9018      21.909633       9.97196
  54    0.5430        5.9903        0.0145       27.6738       27.6883      21.698031      11.45440
  53    0.7617        5.9881        0.0199       27.3185       27.3385      21.350419      13.41357
  52     1.069        5.9858        0.0271       26.7574       26.7845      20.798738      15.17508
  51     1.499        5.9840        0.0363       25.9466       25.9829      19.998903      15.68657
  50     2.102        5.9841        0.0478       24.8886       24.9363      18.952196      14.63438
  49     2.949        5.9888        0.0627       23.6539       23.7166      17.727762      12.20550
  48     4.137        6.0013        0.0823       22.3800       22.4622      16.460885       9.00249
  47     5.803        6.0235        0.1081       21.1533       21.2614      15.237873       6.19555
  46     8.139        6.0551        0.1430       20.0304       20.1734      14.118352       4.04323
  45     11.42        6.0941        0.1901       19.0179       19.2080      13.113896       2.58611
  44     16.01        6.1406        0.2535       18.0801       18.3336      12.192970       1.69037
  43     22.46        6.1953        0.3392       17.1858       17.5250      11.329699       1.12962
  42     31.51        6.2510        0.4557       16.3448       16.8005      10.549486       0.72783
  41     44.20        6.2893        0.6154       15.5663       16.1817       9.892398       0.43699
  40     62.00        6.2981        0.8318       14.8065       15.6383       9.340135       0.26184
  39     85.78        6.2458        1.1131       14.0925       15.2056       8.959773       0.13501
  38     109.5        6.1555        1.3902       13.5167       14.9069       8.751337       0.07399
  37     133.1        6.0608        1.6442       13.0134       14.6576       8.596815       0.05549
  36     156.8        5.9651        1.8796       12.5564       14.4361       8.470917       0.04464
  35     180.6        5.8575        2.1195       12.1053       14.2249       8.367327       0.03678
  34     202.8        5.7476        2.3414       11.7016       14.0430       8.295381       0.02732
  33     228.4        5.6326        2.5577       11.3112       13.8689       8.236298       0.01949
  32     252.2        5.5159        2.7647       10.9372       13.7019       8.186044       0.01784
  31     276.0        5.3988        2.9600       10.5839       13.5439       8.145042       0.01455
  30     299.8        5.2797        3.1478       10.2424       13.3902       8.110582       0.01223
  29     323.5        5.1599        3.3268        9.9126       13.2395       8.079519       0.01103
  28     347.3        5.0411        3.4953        9.5973       13.0926       8.051551       0.00993
  27     371.1        4.9235        3.6535        9.2967       12.9501       8.026651       0.00884
  26     394.9        4.8041        3.8056        9.0022       12.8078       8.003701       0.00815
  25     418.6        4.6849        3.9493        8.7182       12.6675       7.982551       0.00751
  24     442.4        4.5659        4.0852        8.4437       12.5289       7.963001       0.00694
  23     466.2        4.4465        4.2139        8.1775       12.3914       7.944991       0.00639
  22     489.9        4.3283        4.3340        7.9229       12.2569       7.928591       0.00582
  21     513.7        4.2095        4.4479        7.6749       12.1227       7.913259       0.00544
  20     537.5        4.0918        4.5539        7.4369       11.9908       7.898989       0.00507
  19     561.3        3.9750        4.6527        7.2080       11.8607       7.885663       0.00473
  18     585.0        3.8566        4.7464        6.9831       11.7295       7.872881       0.00454
  17     608.8        3.7394        4.8331        6.7672       11.6003       7.860867       0.00426
  16     632.6        3.6234        4.9131        6.5598       11.4729       7.849555       0.00402
  15     656.4        3.5061        4.9882        6.3565       11.3448       7.838679       0.00386
  14     680.1        3.3898        5.0571        6.1611       11.2182       7.828415       0.00364
  13     703.9        3.2746        5.1201        5.9732       11.0933       7.818720       0.00344
  12     727.7        3.1586        5.1783        5.7897       10.9680       7.809418       0.00330
  11     751.5        3.0418        5.2317        5.6105       10.8423       7.800503       0.00316
  10     775.2        2.9256        5.2800        5.4377       10.7177       7.792060       0.00300
   9     799.0        2.8101        5.3232        5.2710       10.5942       7.784062       0.00284
   8     822.8        2.3863        5.4537        4.7091       10.1628       7.776500       0.00268
   7     846.6        1.9648        5.5272        4.2071        9.7343       7.769571       0.00246
   6     870.4        1.5460        5.5495        3.7598        9.3093       7.763282       0.00223
   5     894.1        1.1296        5.5272        3.3600        8.8872       7.757599       0.00202
   4     917.9        1.0148        5.5106        3.2565        8.7671       7.752288       0.00189
   3     941.7        0.8998        5.4910        3.1560        8.6470       7.747199       0.00181
   2     965.5        0.7854        5.4687        3.0591        8.5278       7.742364       0.00172
   1     989.2        0.6717        5.4438        2.9656        8.4094       7.737768       0.00163
   0    1013.0        0.5586        5.4165        2.8755        8.2920       7.733401       0.00155



 Wavenumbers: 38000. - 50000. cm-1, ATM      1
 LEVEL PRESSURE   UPWARD FLUX   DIFDOWN FLUX  DIRDOWN FLUX  DOWNWARD FLUX   NET FLUX    HEATING RATE
          mb          W/m2          W/m2          W/m2        W/m2          W/m2       degree/day
  60   .000300        0.0069        0.0000        1.7407        1.7407       1.733864       0.00000
  59    0.1000        0.0063        0.0006        1.7198        1.7204       1.714069       1.67562
  58    0.1403        0.0061        0.0008        1.7047        1.7056       1.699408       3.07012
  57    0.1968        0.0059        0.0012        1.6784        1.6796       1.673683       3.84232
  56    0.2760        0.0056        0.0016        1.6341        1.6357       1.630132       4.64062
  55    0.3871        0.0051        0.0021        1.5634        1.5655       1.560405       5.29648
  54    0.5430        0.0046        0.0028        1.4543        1.4571       1.452495       5.84133
  53    0.7617        0.0039        0.0034        1.2861        1.2895       1.285598       6.44019
  52     1.069        0.0031        0.0037        1.0457        1.0495       1.046342       6.58121
  51     1.499        0.0024        0.0037        0.7523        0.7559       0.753565       5.74202
  50     2.102        0.0017        0.0031        0.4664        0.4695       0.467843       3.99478
  49     2.949        0.0012        0.0024        0.2581        0.2604       0.259286       2.07895
  48     4.137        0.0008        0.0017        0.1381        0.1398       0.139011       0.85468
  47     5.803        0.0005        0.0013        0.0728        0.0741       0.073572       0.33150
  46     8.139        0.0003        0.0009        0.0388        0.0397       0.039349       0.12360
  45     11.42        0.0002        0.0006        0.0198        0.0204       0.020194       0.04932
  44     16.01        0.0001        0.0004        0.0090        0.0093       0.009236       0.02011
  43     22.46        0.0000        0.0002        0.0034        0.0036       0.003591       0.00739
  42     31.51        0.0000        0.0001        0.0011        0.0012       0.001179       0.00225
  41     44.20        0.0000        0.0000        0.0003        0.0003       0.000327       0.00057
  40     62.00        0.0000        0.0000        0.0001        0.0001       0.000070       0.00012
  39     85.78        0.0000        0.0000        0.0000        0.0000       0.000012       0.00002
  38     109.5        0.0000        0.0000        0.0000        0.0000       0.000002       0.00000
  37     133.1        0.0000        0.0000        0.0000        0.0000       0.000000       0.00000
  36     156.8        0.0000        0.0000        0.0000        0.0000       0.000000       0.00000
  35     180.6        0.0000        0.0000        0.0000        0.0000       0.000000       0.00000
  34     202.8        0.0000        0.0000        0.0000        0.0000       0.000000       0.00000
  33     228.4        0.0000        0.0000        0.0000        0.0000       0.000000       0.00000
  32     252.2        0.0000        0.0000        0.0000        0.0000       0.000000       0.00000
  31     276.0        0.0000        0.0000        0.0000        0.0000       0.000000       0.00000
  30     299.8        0.0000        0.0000        0.0000        0.0000       0.000000       0.00000
  29     323.5        0.0000        0.0000        0.0000        0.0000       0.000000       0.00000
  28     347.3        0.0000        0.0000        0.0000        0.0000       0.000000       0.00000
  27     371.1        0.0000        0.0000        0.0000        0.0000       0.000000       0.00000
  26     394.9        0.0000        0.0000        0.0000        0.0000       0.000000       0.00000
  25     418.6        0.0000        0.0000        0.0000        0.0000       0.000000       0.00000
  24     442.4        0.0000        0.0000        0.0000        0.0000       0.000000       0.00000
  23     466.2        0.0000        0.0000        0.0000        0.0000       0.000000       0.00000
  22     489.9        0.0000        0.0000        0.0000        0.0000       0.000000       0.00000
  21     513.7        0.0000        0.0000        0.0000        0.0000       0.000000       0.00000
  20     537.5        0.0000        0.0000        0.0000        0.0000       0.000000       0.00000
  19     561.3        0.0000        0.0000        0.0000        0.0000       0.000000       0.00000
  18     585.0        0.0000        0.0000        0.0000        0.0000       0.000000       0.00000
  17     608.8        0.0000        0.0000        0.0000        0.0000       0.000000       0.00000
  16     632.6        0.0000        0.0000        0.0000        0.0000       0.000000       0.00000
  15     656.4        0.0000        0.0000        0.0000        0.0000       0.000000       0.00000
  14     680.1        0.0000        0.0000        0.0000        0.0000       0.000000       0.00000
  13     703.9        0.0000        0.0000        0.0000        0.0000       0.000000       0.00000
  12     727.7        0.0000        0.0000        0.0000        0.0000       0.000000       0.00000
  11     751.5        0.0000        0.0000        0.0000        0.0000       0.000000       0.00000
  10     775.2        0.0000        0.0000        0.0000        0.0000       0.000000       0.00000
   9     799.0        0.0000        0.0000        0.0000        0.0000       0.000000       0.00000
   8     822.8        0.0000        0.0000        0.0000        0.0000       0.000000       0.00000
   7     846.6        0.0000        0.0000        0.0000        0.0000       0.000000       0.00000
   6     870.4        0.0000        0.0000        0.0000        0.0000       0.000000       0.00000
   5     894.1        0.0000        0.0000        0.0000        0.0000       0.000000       0.00000
   4     917.9        0.0000        0.0000        0.0000        0.0000       0.000000       0.00000
   3     941.7        0.0000        0.0000        0.0000        0.0000       0.000000       0.00000
   2     965.5        0.0000        0.0000        0.0000        0.0000       0.000000       0.00000
   1     989.2        0.0000        0.0000        0.0000        0.0000       0.000000       0.00000
   0    1013.0        0.0000        0.0000        0.0000        0.0000       0.000000       0.00000



 Wavenumbers:   820. -  2600. cm-1, ATM      1
 LEVEL PRESSURE   UPWARD FLUX   DIFDOWN FLUX  DIRDOWN FLUX  DOWNWARD FLUX   NET FLUX    HEATING RATE
          mb          W/m2          W/m2          W/m2        W/m2          W/m2       degree/day
  60   .000300        0.3331        0.0000        8.1430        8.1430       7.809842       0.00000
  59    0.1000        0.3331        0.0000        8.1331        8.1331       7.799956       0.83685
  58    0.1403        0.3331        0.0000        8.1309        8.1309       7.797817       0.44785
  57    0.1968        0.3331        0.0000        8.1281        8.1281       7.794977       0.42420
  56    0.2760        0.3331        0.0000        8.1245        8.1245       7.791410       0.38010
  55    0.3871        0.3331        0.0000        8.1201        8.1201       7.786949       0.33885
  54    0.5430        0.3331        0.0000        8.1143        8.1143       7.781193       0.31157
  53    0.7617        0.3331        0.0000        8.1063        8.1063       7.773207       0.30815
  52     1.069        0.3331        0.0000        8.0951        8.0951       7.761959       0.30940
  51     1.499        0.3331        0.0000        8.0799        8.0799       7.746770       0.29790
  50     2.102        0.3331        0.0000        8.0595        8.0595       7.726359       0.28537
  49     2.949        0.3331        0.0000        8.0314        8.0314       7.698220       0.28050
  48     4.137        0.3331        0.0000        7.9935        7.9935       7.660373       0.26894
  47     5.803        0.3331        0.0000        7.9444        7.9444       7.611251       0.24884
  46     8.139        0.3331        0.0000        7.8811        7.8811       7.547973       0.22853
  45     11.42        0.3331        0.0000        7.8004        7.8004       7.467248       0.20784
  44     16.01        0.3332        0.0000        7.7070        7.7070       7.373890       0.17136
  43     22.46        0.3332        0.0000        7.6181        7.6181       7.284914       0.11643
  42     31.51        0.3332        0.0000        7.5468        7.5468       7.213633       0.06650
  41     44.20        0.3332        0.0000        7.4816        7.4816       7.148430       0.04336
  40     62.00        0.3332        0.0000        7.3998        7.3998       7.066594       0.03880
  39     85.78        0.3333        0.0000        7.2958        7.2958       6.962530       0.03694
  38     109.5        0.3333        0.0000        7.1946        7.1946       6.861309       0.03593
  37     133.1        0.3334        0.0000        7.1003        7.1003       6.766899       0.03390
  36     156.8        0.3334        0.0000        7.0126        7.0126       6.679214       0.03109
  35     180.6        0.3335        0.0000        6.9166        6.9166       6.583109       0.03412
  34     202.8        0.3336        0.0000        6.8041        6.8042       6.470612       0.04271
  33     228.4        0.3336        0.0000        6.6630        6.6630       6.329371       0.04660
  32     252.2        0.3338        0.0000        6.4917        6.4917       6.157918       0.06086
  31     276.0        0.3339        0.0000        6.3090        6.3091       5.975156       0.06487
  30     299.8        0.3341        0.0000        6.1153        6.1153       5.781178       0.06885
  29     323.5        0.3344        0.0000        5.9197        5.9197       5.585282       0.06954
  28     347.3        0.3348        0.0000        5.7036        5.7036       5.368759       0.07686
  27     371.1        0.3353        0.0000        5.4648        5.4649       5.129543       0.08491
  26     394.9        0.3359        0.0000        5.2059        5.2060       4.870070       0.09210
  25     418.6        0.3366        0.0000        4.9521        4.9521       4.615495       0.09036
  24     442.4        0.3374        0.0000        4.7233        4.7233       4.385930       0.08149
  23     466.2        0.3383        0.0000        4.5370        4.5370       4.198688       0.06646
  22     489.9        0.3394        0.0000        4.3924        4.3925       4.053098       0.05168
  21     513.7        0.3406        0.0000        4.2764        4.2764       3.935791       0.04164
  20     537.5        0.3421        0.0000        4.1775        4.1776       3.835433       0.03562
  19     561.3        0.3439        0.0000        4.0839        4.0840       3.740105       0.03384
  18     585.0        0.3459        0.0000        3.9882        3.9883       3.642335       0.03470
  17     608.8        0.3483        0.0000        3.8907        3.8907       3.542400       0.03547
  16     632.6        0.3511        0.0000        3.7911        3.7912       3.440054       0.03633
  15     656.4        0.3545        0.0000        3.6867        3.6868       3.332327       0.03824
  14     680.1        0.3585        0.0000        3.5795        3.5795       3.221079       0.03949
  13     703.9        0.3633        0.0000        3.4709        3.4710       3.107707       0.04024
  12     727.7        0.3693        0.0000        3.3598        3.3599       2.990578       0.04158
  11     751.5        0.3771        0.0000        3.2443        3.2443       2.867215       0.04379
  10     775.2        0.3873        0.0000        3.1256        3.1256       2.738334       0.04575
   9     799.0        0.4007        0.0000        3.0033        3.0033       2.602651       0.04816
   8     822.8        0.3115        0.1224        2.6536        2.7760       2.464500       0.04904
   7     846.6        0.2253        0.2191        2.3447        2.5637       2.338378       0.04477
   6     870.4        0.1412        0.2924        2.0717        2.3641       2.222989       0.04096
   5     894.1        0.0581        0.3465        1.8285        2.1750       2.116910       0.03765
   4     917.9        0.0605        0.3282        1.7471        2.0753       2.014771       0.03626
   3     941.7        0.0633        0.3100        1.6651        1.9750       1.911712       0.03658
   2     965.5        0.0666        0.2919        1.5827        1.8746       1.807943       0.03683
   1     989.2        0.0706        0.2741        1.5002        1.7743       1.703663       0.03701
   0    1013.0        0.0754        0.2566        1.4180        1.6747       1.599283       0.03706

  Modules and versions used in this calculation:

       rrtmg_sw.1col.f90:  $Revision$                    rrtmg_sw_init.f90:  $Revision$        
     rrtmgsw_cldprop.f90:  $Revision$                  rrtmgsw_cldprmc.f90:  NOT USED          
     rrtmg_sw_reftra.f90:  $Revision$                  rrtmg_sw_spcvrt.f90:  NOT USED          
     rrtmg_sw_spcvmc.f90:  NOT USED                    rrtmgsw_setcoef.f90:  NOT USED          
     rrtmg_sw_taumol.f90:  $Revision$                  rrtmg_sw_vrtqdr.f90:  NOT USED          
                rrtatm.f:  NOT USED                             util_xxx.f:  NOT USED          
                 extra.f:  NOT USED                       rrtmg_sw_k_g.f90:  $Revision$        

