

 Wavenumbers:   820. - 50000. cm-1, ATM      1
 LEVEL PRESSURE   UPWARD FLUX   DIFDOWN FLUX  DIRDOWN FLUX  DOWNWARD FLUX   NET FLUX    HEATING RATE
          mb          W/m2          W/m2          W/m2        W/m2          W/m2       degree/day
  60   .000300       84.1902        0.0000     1042.4709     1042.4709     958.280762       0.00000
  59    0.1000       84.1837        0.0098     1042.3585     1042.3684     958.184687       8.13231
  58    0.1403       84.1812        0.0138     1042.3004     1042.3142     958.132997      10.82423
  57    0.1968       84.1778        0.0194     1042.2041     1042.2235     958.045609      13.05271
  56    0.2760       84.1734        0.0271     1042.0472     1042.0743     957.900912      15.41817
  55    0.3871       84.1673        0.0379     1041.7993     1041.8372     957.669877      17.54943
  54    0.5430       84.1593        0.0527     1041.4123     1041.4651     957.305755      19.71058
  53    0.7617       84.1490        0.0730     1040.7941     1040.8671     956.718094      22.67651
  52     1.069       84.1362        0.1008     1039.8315     1039.9323     955.796013      25.36367
  51     1.499       84.1215        0.1379     1038.4493     1038.5872     954.465697      26.09048
  50     2.102       84.1066        0.1876     1036.6488     1036.8363     952.729747      24.27094
  49     2.949       84.0953        0.2567     1034.5489     1034.8056     950.710265      20.13076
  48     4.137       84.0924        0.3526     1032.3568     1032.7094     948.617040      14.87457
  47     5.803       84.0980        0.4856     1030.1103     1030.5960     946.497991      10.73471
  46     8.139       84.1049        0.6706     1027.7959     1028.4665     944.361619       7.71565
  45     11.42       84.0994        0.9278     1025.3621     1026.2899     942.190466       5.58993
  44     16.01       84.0679        1.2847     1022.6863     1023.9710     939.903121       4.19845
  43     22.46       83.9914        1.7804     1019.6498     1021.4302     937.438800       3.22466
  42     31.51       83.8245        2.4691     1016.2288     1018.6979     934.873440       2.39313
  41     44.20       83.4861        3.4285     1012.4120     1015.8404     932.354374       1.67528
  40     62.00       82.9000        4.7510     1008.0026     1012.7536     929.853640       1.18563
  39     85.78       81.9624        6.4950     1003.0975     1009.5925     927.630081       0.78927
  38     109.5       80.9217        8.2398      998.6164     1006.8562     925.934509       0.60186
  37     133.1       79.8952        9.8874      994.4943     1004.3817     924.486479       0.52001
  36     156.8       78.8829       11.4641      990.6066     1002.0706     923.187773       0.46052
  35     180.6       77.7876       13.1101      986.5481      999.6582     921.870601       0.46762
  34     202.8       76.7138       14.6674      982.5191      997.1865     920.472656       0.53077
  33     228.4       75.6077       16.2281      978.0654      994.2934     918.685768       0.58956
  32     252.2       74.4908       17.7646      973.1536      990.9182     916.427406       0.80163
  31     276.0       73.3793       19.2562      967.7181      986.9743     913.594944       1.00541
  30     299.8       72.2526       20.7324      961.5287      982.2611     910.008476       1.27305
  29     323.5       71.1192       22.1844      954.7609      976.9454     905.826193       1.48454
  28     347.3       69.9920       23.5969      947.6605      971.2574     901.265346       1.61891
  27     371.1       68.8754       24.9659      940.4565      965.4223     896.546879       1.67486
  26     394.9       67.7400       26.3281      932.8893      959.2174     891.477466       1.79943
  25     418.6       66.6044       27.6613      925.0832      952.7445     886.140112       1.89454
  24     442.4       65.4672       28.9679      917.0332      946.0011     880.533904       1.98997
  23     466.2       64.3247       30.2527      908.8704      939.1231     874.798439       2.03585
  22     489.9       63.1928       31.4986      900.7552      932.2538     869.061025       2.03655
  21     513.7       62.0525       32.7274      892.5288      925.2563     863.203778       2.07908
  20     537.5       60.9215       33.9208      884.3035      918.2243     857.302791       2.09461
  19     561.3       59.7983       35.0813      876.0679      911.1493     851.350944       2.11266
  18     585.0       58.6588       36.2345      867.7434      903.9780     845.319174       2.14103
  17     608.8       57.5297       37.3535      859.5641      896.9176     839.387877       2.10537
  16     632.6       56.4112       38.4392      851.5124      889.9516     833.540456       2.07559
  15     656.4       55.2808       39.5142      843.3457      882.8599     827.579066       2.11605
  14     680.1       54.1622       40.5567      835.1535      875.7102     821.547992       2.14078
  13     703.9       53.0559       41.5678      826.9502      868.5179     815.461989       2.16028
  12     727.7       51.9465       42.5626      818.6025      861.1651     809.218633       2.21613
  11     751.5       50.8360       43.5403      810.0193      853.5596     802.723605       2.30547
  10     775.2       49.7400       44.4888      801.2943      845.7832     796.043114       2.37130
   9     799.0       48.6610       45.4084      792.4301      837.8385     789.177550       2.43699
   8     822.8       47.5821       46.3145      783.4414      829.7559     782.173752       2.48606
   7     846.6       46.5130       47.1984      774.7883      821.9867     775.473743       2.37823
   6     870.4       45.4604       48.0561      766.4693      814.5254     769.064982       2.27485
   5     894.1       44.4260       48.8882      758.4410      807.3292     762.903266       2.18716
   4     917.9       43.4012       49.7040      750.5706      800.2745     756.873332       2.14038
   3     941.7       42.3942       50.5005      742.8314      793.3319     750.937659       2.10692
   2     965.5       41.4179       51.2720      735.2690      786.5410     745.123132       2.06392
   1     989.2       40.4790       52.0192      727.8785      779.8977     739.418679       2.02442
   0    1013.0       39.5878       52.7426      720.6511      773.3937     733.805924       1.99272



 Wavenumbers:  2600. -  3250. cm-1, ATM      1
 LEVEL PRESSURE   UPWARD FLUX   DIFDOWN FLUX  DIRDOWN FLUX  DOWNWARD FLUX   NET FLUX    HEATING RATE
          mb          W/m2          W/m2          W/m2        W/m2          W/m2       degree/day
  60   .000300        0.0859        0.0000        9.1877        9.1877       9.101826       0.00000
  59    0.1000        0.0859        0.0000        9.1876        9.1876       9.101753       0.00613
  58    0.1403        0.0859        0.0000        9.1876        9.1876       9.101724       0.00614
  57    0.1968        0.0859        0.0000        9.1876        9.1876       9.101683       0.00617
  56    0.2760        0.0859        0.0000        9.1875        9.1875       9.101625       0.00614
  55    0.3871        0.0859        0.0000        9.1874        9.1874       9.101541       0.00642
  54    0.5430        0.0859        0.0000        9.1873        9.1873       9.101415       0.00679
  53    0.7617        0.0859        0.0000        9.1871        9.1871       9.101218       0.00763
  52     1.069        0.0859        0.0000        9.1868        9.1868       9.100886       0.00911
  51     1.499        0.0859        0.0000        9.1862        9.1862       9.100275       0.01200
  50     2.102        0.0859        0.0000        9.1851        9.1851       9.099176       0.01537
  49     2.949        0.0859        0.0000        9.1832        9.1832       9.097260       0.01910
  48     4.137        0.0859        0.0000        9.1801        9.1801       9.094160       0.02202
  47     5.803        0.0859        0.0000        9.1754        9.1754       9.089533       0.02344
  46     8.139        0.0859        0.0000        9.1690        9.1690       9.083089       0.02327
  45     11.42        0.0859        0.0000        9.1606        9.1606       9.074723       0.02154
  44     16.01        0.0859        0.0000        9.1506        9.1506       9.064757       0.01829
  43     22.46        0.0859        0.0000        9.1395        9.1395       9.053640       0.01455
  42     31.51        0.0859        0.0000        9.1268        9.1268       9.040905       0.01188
  41     44.20        0.0859        0.0000        9.1091        9.1091       9.023238       0.01175
  40     62.00        0.0859        0.0000        9.0808        9.0808       8.994947       0.01341
  39     85.78        0.0859        0.0000        9.0371        9.0371       8.951267       0.01550
  38     109.5        0.0859        0.0000        8.9874        8.9875       8.901617       0.01762
  37     133.1        0.0859        0.0000        8.9386        8.9387       8.852791       0.01753
  36     156.8        0.0859        0.0001        8.8915        8.8915       8.805665       0.01671
  35     180.6        0.0859        0.0001        8.8426        8.8427       8.756812       0.01734
  34     202.8        0.0859        0.0001        8.7962        8.7963       8.710421       0.01761
  33     228.4        0.0859        0.0001        8.7473        8.7474       8.661500       0.01614
  32     252.2        0.0859        0.0001        8.6951        8.6952       8.609270       0.01854
  31     276.0        0.0859        0.0001        8.6394        8.6395       8.553507       0.01979
  30     299.8        0.0860        0.0001        8.5775        8.5776       8.491648       0.02196
  29     323.5        0.0860        0.0001        8.5093        8.5095       8.423412       0.02422
  28     347.3        0.0861        0.0001        8.4346        8.4347       8.348580       0.02656
  27     371.1        0.0862        0.0001        8.3540        8.3542       8.267950       0.02862
  26     394.9        0.0863        0.0001        8.2632        8.2634       8.177032       0.03227
  25     418.6        0.0865        0.0001        8.1616        8.1617       8.075284       0.03612
  24     442.4        0.0866        0.0001        8.0461        8.0462       7.959593       0.04107
  23     466.2        0.0868        0.0001        7.9179        7.9181       7.831243       0.04556
  22     489.9        0.0870        0.0002        7.7782        7.7783       7.691303       0.04967
  21     513.7        0.0873        0.0002        7.6239        7.6240       7.536723       0.05487
  20     537.5        0.0876        0.0002        7.4579        7.4581       7.370500       0.05900
  19     561.3        0.0879        0.0002        7.2839        7.2841       7.196122       0.06190
  18     585.0        0.0883        0.0002        7.1039        7.1041       7.015764       0.06402
  17     608.8        0.0888        0.0002        6.9249        6.9250       6.836246       0.06372
  16     632.6        0.0893        0.0002        6.7478        6.7480       6.658638       0.06304
  15     656.4        0.0899        0.0002        6.5681        6.5682       6.478321       0.06401
  14     680.1        0.0906        0.0002        6.3876        6.3878       6.297164       0.06430
  13     703.9        0.0914        0.0002        6.2071        6.2073       6.115866       0.06435
  12     727.7        0.0924        0.0002        6.0223        6.0224       5.930049       0.06596
  11     751.5        0.0935        0.0002        5.8300        5.8302       5.736647       0.06865
  10     775.2        0.0949        0.0002        5.6314        5.6315       5.536610       0.07100
   9     799.0        0.0966        0.0002        5.4255        5.4257       5.329101       0.07366
   8     822.8        0.0986        0.0002        5.2141        5.2142       5.115592       0.07579
   7     846.6        0.1009        0.0002        5.0109        5.0111       4.910142       0.07293
   6     870.4        0.1035        0.0002        4.8172        4.8173       4.713855       0.06967
   5     894.1        0.1064        0.0002        4.6324        4.6326       4.526166       0.06662
   4     917.9        0.1098        0.0001        4.4544        4.4545       4.344716       0.06441
   3     941.7        0.1138        0.0001        4.2825        4.2826       4.168850       0.06243
   2     965.5        0.1185        0.0001        4.1178        4.1180       3.999523       0.06010
   1     989.2        0.1241        0.0001        3.9602        3.9604       3.836278       0.05793
   0    1013.0        0.1310        0.0001        3.8093        3.8095       3.678410       0.05605



 Wavenumbers:  3250. -  4000. cm-1, ATM      1
 LEVEL PRESSURE   UPWARD FLUX   DIFDOWN FLUX  DIRDOWN FLUX  DOWNWARD FLUX   NET FLUX    HEATING RATE
          mb          W/m2          W/m2          W/m2        W/m2          W/m2       degree/day
  60   .000300        0.0005        0.0000       15.4892       15.4892      15.488674       0.00000
  59    0.1000        0.0005        0.0000       15.4673       15.4673      15.466814       1.85040
  58    0.1403        0.0005        0.0000       15.4631       15.4631      15.462642       0.87356
  57    0.1968        0.0005        0.0000       15.4580       15.4580      15.457533       0.76308
  56    0.2760        0.0005        0.0000       15.4520       15.4520      15.451532       0.63952
  55    0.3871        0.0005        0.0000       15.4450       15.4450      15.444523       0.53241
  54    0.5430        0.0005        0.0000       15.4367       15.4367      15.436257       0.44741
  53    0.7617        0.0005        0.0000       15.4264       15.4264      15.425925       0.39870
  52     1.069        0.0005        0.0000       15.4133       15.4133      15.412827       0.36030
  51     1.499        0.0005        0.0000       15.3974       15.3974      15.396935       0.31167
  50     2.102        0.0005        0.0000       15.3786       15.3786      15.378085       0.26355
  49     2.949        0.0005        0.0000       15.3561       15.3561      15.355590       0.22424
  48     4.137        0.0005        0.0000       15.3291       15.3291      15.328610       0.19172
  47     5.803        0.0005        0.0000       15.2953       15.2953      15.294793       0.17131
  46     8.139        0.0005        0.0000       15.2496       15.2497      15.249189       0.16471
  45     11.42        0.0005        0.0000       15.1838       15.1838      15.183377       0.16944
  44     16.01        0.0005        0.0000       15.0864       15.0864      15.085940       0.17885
  43     22.46        0.0004        0.0000       14.9438       14.9439      14.943410       0.18651
  42     31.51        0.0004        0.0000       14.7434       14.7434      14.743013       0.18694
  41     44.20        0.0004        0.0001       14.4852       14.4853      14.484845       0.17169
  40     62.00        0.0004        0.0001       14.1864       14.1865      14.186133       0.14162
  39     85.78        0.0004        0.0001       13.8517       13.8518      13.851396       0.11882
  38     109.5        0.0003        0.0001       13.5177       13.5179      13.517529       0.11851
  37     133.1        0.0003        0.0002       13.2074       13.2076      13.207246       0.11143
  36     156.8        0.0003        0.0002       12.9147       12.9149      12.914565       0.10378
  35     180.6        0.0003        0.0002       12.5943       12.5945      12.594210       0.11373
  34     202.8        0.0002        0.0002       12.2125       12.2128      12.212538       0.14491
  33     228.4        0.0002        0.0002       11.7231       11.7233      11.723123       0.16148
  32     252.2        0.0002        0.0003       11.1455       11.1457      11.145560       0.20501
  31     276.0        0.0002        0.0003       10.4964       10.4966      10.496461       0.23040
  30     299.8        0.0001        0.0003        9.7807        9.7809       9.780775       0.25404
  29     323.5        0.0001        0.0003        9.0404        9.0407       9.040577       0.26274
  28     347.3        0.0001        0.0003        8.2944        8.2947       8.294566       0.26480
  27     371.1        0.0001        0.0002        7.5749        7.5752       7.575079       0.25539
  26     394.9        0.0001        0.0002        6.8729        6.8731       6.873012       0.24920
  25     418.6        0.0001        0.0002        6.2304        6.2307       6.230581       0.22804
  24     442.4        0.0001        0.0002        5.6500        5.6502       5.650170       0.20602
  23     466.2        0.0001        0.0002        5.1288        5.1290       5.128957       0.18501
  22     489.9        0.0000        0.0002        4.6603        4.6605       4.660431       0.16631
  21     513.7        0.0000        0.0002        4.2228        4.2230       4.222952       0.15529
  20     537.5        0.0000        0.0002        3.8178        3.8180       3.817962       0.14375
  19     561.3        0.0000        0.0002        3.4401        3.4402       3.440186       0.13410
  18     585.0        0.0000        0.0001        3.0858        3.0859       3.085904       0.12576
  17     608.8        0.0000        0.0001        2.7599        2.7601       2.760042       0.11567
  16     632.6        0.0000        0.0001        2.4569        2.4570       2.456968       0.10758
  15     656.4        0.0000        0.0001        2.1644        2.1645       2.164447       0.10383
  14     680.1        0.0000        0.0001        1.8852        1.8853       1.885311       0.09908
  13     703.9        0.0000        0.0001        1.6233        1.6234       1.623363       0.09298
  12     727.7        0.0000        0.0001        1.3775        1.3775       1.377521       0.08726
  11     751.5        0.0000        0.0001        1.1471        1.1471       1.147103       0.08179
  10     775.2        0.0000        0.0000        0.9368        0.9369       0.936862       0.07463
   9     799.0        0.0000        0.0000        0.7469        0.7469       0.746923       0.06742
   8     822.8        0.0000        0.0000        0.5779        0.5779       0.577882       0.06000
   7     846.6        0.0000        0.0000        0.4392        0.4392       0.439181       0.04923
   6     870.4        0.0000        0.0000        0.3269        0.3269       0.326891       0.03986
   5     894.1        0.0000        0.0000        0.2374        0.2374       0.237379       0.03177
   4     917.9        0.0001        0.0000        0.1670        0.1670       0.166932       0.02501
   3     941.7        0.0001        0.0000        0.1133        0.1133       0.113142       0.01909
   2     965.5        0.0002        0.0000        0.0740        0.0740       0.073777       0.01397
   1     989.2        0.0004        0.0000        0.0465        0.0465       0.046050       0.00984
   0    1013.0        0.0010        0.0000        0.0280        0.0280       0.027044       0.00675



 Wavenumbers:  4000. -  4650. cm-1, ATM      1
 LEVEL PRESSURE   UPWARD FLUX   DIFDOWN FLUX  DIRDOWN FLUX  DOWNWARD FLUX   NET FLUX    HEATING RATE
          mb          W/m2          W/m2          W/m2        W/m2          W/m2       degree/day
  60   .000300        0.3555        0.0000       18.1889       18.1889      17.833447       0.00000
  59    0.1000        0.3555        0.0000       18.1889       18.1889      17.833438       0.00076
  58    0.1403        0.3555        0.0000       18.1889       18.1889      17.833435       0.00076
  57    0.1968        0.3555        0.0000       18.1889       18.1889      17.833430       0.00077
  56    0.2760        0.3555        0.0000       18.1889       18.1889      17.833422       0.00076
  55    0.3871        0.3555        0.0000       18.1889       18.1889      17.833412       0.00080
  54    0.5430        0.3555        0.0000       18.1889       18.1889      17.833396       0.00085
  53    0.7617        0.3555        0.0000       18.1889       18.1889      17.833372       0.00095
  52     1.069        0.3555        0.0000       18.1888       18.1888      17.833330       0.00114
  51     1.499        0.3555        0.0000       18.1887       18.1887      17.833253       0.00151
  50     2.102        0.3555        0.0000       18.1886       18.1886      17.833112       0.00197
  49     2.949        0.3555        0.0000       18.1883       18.1883      17.832859       0.00252
  48     4.137        0.3555        0.0000       18.1879       18.1879      17.832430       0.00305
  47     5.803        0.3555        0.0000       18.1872       18.1872      17.831738       0.00351
  46     8.139        0.3555        0.0000       18.1861       18.1861      17.830655       0.00391
  45     11.42        0.3555        0.0000       18.1844       18.1844      17.828984       0.00430
  44     16.01        0.3554        0.0001       18.1818       18.1819      17.826450       0.00465
  43     22.46        0.3554        0.0001       18.1780       18.1781      17.822664       0.00495
  42     31.51        0.3554        0.0001       18.1723       18.1724      17.816991       0.00529
  41     44.20        0.3554        0.0002       18.1632       18.1634      17.808013       0.00597
  40     62.00        0.3553        0.0002       18.1491       18.1493      17.794019       0.00663
  39     85.78        0.3552        0.0003       18.1292       18.1295      17.774233       0.00702
  38     109.5        0.3552        0.0004       18.1076       18.1080      17.752785       0.00761
  37     133.1        0.3551        0.0005       18.0866       18.0870      17.731931       0.00749
  36     156.8        0.3551        0.0006       18.0660       18.0665      17.711447       0.00726
  35     180.6        0.3550        0.0006       18.0435       18.0442      17.689161       0.00791
  34     202.8        0.3550        0.0007       18.0206       18.0213      17.666286       0.00869
  33     228.4        0.3550        0.0008       17.9940       17.9948      17.639853       0.00872
  32     252.2        0.3550        0.0009       17.9629       17.9638      17.608816       0.01102
  31     276.0        0.3550        0.0010       17.9260       17.9270      17.571973       0.01308
  30     299.8        0.3550        0.0011       17.8811       17.8821      17.527057       0.01594
  29     323.5        0.3551        0.0011       17.8276       17.8287      17.473561       0.01899
  28     347.3        0.3553        0.0012       17.7644       17.7656      17.410384       0.02243
  27     371.1        0.3554        0.0013       17.6911       17.6924      17.337021       0.02604
  26     394.9        0.3556        0.0014       17.6025       17.6038      17.248248       0.03151
  25     418.6        0.3558        0.0014       17.4983       17.4998      17.143979       0.03701
  24     442.4        0.3560        0.0015       17.3785       17.3800      17.023960       0.04260
  23     466.2        0.3563        0.0016       17.2460       17.2476      16.891303       0.04709
  22     489.9        0.3566        0.0016       17.1055       17.1071      16.750491       0.04998
  21     513.7        0.3570        0.0017       16.9567       16.9584      16.601461       0.05290
  20     537.5        0.3574        0.0018       16.8043       16.8061      16.448705       0.05422
  19     561.3        0.3579        0.0018       16.6499       16.6517      16.293834       0.05497
  18     585.0        0.3584        0.0019       16.4924       16.4942      16.135793       0.05610
  17     608.8        0.3591        0.0019       16.3346       16.3366      15.977499       0.05619
  16     632.6        0.3598        0.0020       16.1735       16.1755      15.815656       0.05745
  15     656.4        0.3607        0.0020       15.9995       16.0016      15.640908       0.06203
  14     680.1        0.3617        0.0021       15.8113       15.8134      15.451754       0.06714
  13     703.9        0.3628        0.0021       15.6063       15.6084      15.245568       0.07319
  12     727.7        0.3643        0.0021       15.3797       15.3819      15.017619       0.08091
  11     751.5        0.3660        0.0022       15.1285       15.1307      14.764665       0.08979
  10     775.2        0.3681        0.0022       14.8563       14.8585      14.490383       0.09736
   9     799.0        0.3707        0.0022       14.5665       14.5687      14.198032       0.10377
   8     822.8        0.3739        0.0022       14.2662       14.2684      13.894500       0.10774
   7     846.6        0.3775        0.0022       13.9798       13.9820      13.604565       0.10291
   6     870.4        0.3815        0.0023       13.7097       13.7119      13.330411       0.09731
   5     894.1        0.3861        0.0023       13.4544       13.4567      13.070579       0.09223
   4     917.9        0.3913        0.0023       13.2095       13.2118      12.820462       0.08878
   3     941.7        0.3975        0.0023       12.9726       12.9749      12.577451       0.08626
   2     965.5        0.4046        0.0023       12.7431       12.7454      12.340816       0.08400
   1     989.2        0.4131        0.0023       12.5203       12.5226      12.109547       0.08207
   0    1013.0        0.4233        0.0023       12.3016       12.3040      11.880658       0.08126



 Wavenumbers:  4650. -  5150. cm-1, ATM      1
 LEVEL PRESSURE   UPWARD FLUX   DIFDOWN FLUX  DIRDOWN FLUX  DOWNWARD FLUX   NET FLUX    HEATING RATE
          mb          W/m2          W/m2          W/m2        W/m2          W/m2       degree/day
  60   .000300        0.2606        0.0000       17.2167       17.2167      16.956134       0.00000
  59    0.1000        0.2606        0.0000       17.2146       17.2146      16.954010       0.17984
  58    0.1403        0.2606        0.0000       17.2137       17.2137      16.953165       0.17691
  57    0.1968        0.2606        0.0000       17.2125       17.2125      16.951988       0.17584
  56    0.2760        0.2606        0.0000       17.2109       17.2109      16.950376       0.17172
  55    0.3871        0.2606        0.0000       17.2087       17.2087      16.948154       0.16878
  54    0.5430        0.2606        0.0000       17.2057       17.2057      16.945140       0.16316
  53    0.7617        0.2606        0.0000       17.2016       17.2016      16.941089       0.15632
  52     1.069        0.2606        0.0000       17.1962       17.1962      16.935680       0.14877
  51     1.499        0.2606        0.0000       17.1893       17.1893      16.928743       0.13605
  50     2.102        0.2605        0.0000       17.1806       17.1807      16.920107       0.12074
  49     2.949        0.2605        0.0000       17.1701       17.1701      16.909570       0.10504
  48     4.137        0.2605        0.0000       17.1580       17.1580      16.897492       0.08583
  47     5.803        0.2605        0.0000       17.1449       17.1450      16.884435       0.06615
  46     8.139        0.2605        0.0000       17.1314       17.1314      16.870881       0.04895
  45     11.42        0.2605        0.0001       17.1170       17.1171      16.856606       0.03675
  44     16.01        0.2605        0.0001       17.1002       17.1003      16.839796       0.03085
  43     22.46        0.2604        0.0001       17.0766       17.0767      16.816286       0.03076
  42     31.51        0.2604        0.0002       17.0394       17.0396      16.779183       0.03461
  41     44.20        0.2604        0.0002       16.9788       16.9790      16.718641       0.04026
  40     62.00        0.2603        0.0003       16.8825       16.8829      16.622587       0.04554
  39     85.78        0.2602        0.0005       16.7434       16.7439      16.483686       0.04930
  38     109.5        0.2601        0.0006       16.6005       16.6011      16.341003       0.05065
  37     133.1        0.2601        0.0007       16.4685       16.4692      16.209158       0.04735
  36     156.8        0.2600        0.0008       16.3478       16.3486      16.088579       0.04276
  35     180.6        0.2600        0.0009       16.2284       16.2293      15.969320       0.04234
  34     202.8        0.2600        0.0011       16.1209       16.1220      15.862023       0.04074
  33     228.4        0.2600        0.0012       16.0168       16.0179      15.757968       0.03433
  32     252.2        0.2600        0.0013       15.9158       15.9171      15.657119       0.03580
  31     276.0        0.2600        0.0014       15.8169       15.8183      15.558231       0.03510
  30     299.8        0.2601        0.0015       15.7144       15.7159      15.455760       0.03637
  29     323.5        0.2603        0.0016       15.6065       15.6081      15.347848       0.03830
  28     347.3        0.2604        0.0017       15.4936       15.4953      15.234870       0.04010
  27     371.1        0.2607        0.0018       15.3748       15.3766      15.115948       0.04221
  26     394.9        0.2609        0.0019       15.2463       15.2482      14.987290       0.04567
  25     418.6        0.2613        0.0020       15.1086       15.1106      14.849386       0.04895
  24     442.4        0.2616        0.0021       14.9607       14.9628      14.701154       0.05262
  23     466.2        0.2621        0.0022       14.8026       14.8048      14.542724       0.05624
  22     489.9        0.2626        0.0023       14.6355       14.6377      14.375133       0.05949
  21     513.7        0.2632        0.0023       14.4571       14.4595      14.196266       0.06349
  20     537.5        0.2639        0.0024       14.2691       14.2715      14.007611       0.06696
  19     561.3        0.2647        0.0025       14.0714       14.0738      13.809145       0.07045
  18     585.0        0.2656        0.0025       13.8621       13.8646      13.599029       0.07458
  17     608.8        0.2666        0.0026       13.6478       13.6503      13.383744       0.07642
  16     632.6        0.2677        0.0026       13.4287       13.4314      13.163627       0.07813
  15     656.4        0.2691        0.0027       13.1996       13.2023      12.933264       0.08177
  14     680.1        0.2705        0.0027       12.9657       12.9685      12.697922       0.08354
  13     703.9        0.2722        0.0028       12.7284       12.7311      12.458912       0.08484
  12     727.7        0.2742        0.0028       12.4846       12.4874      12.213167       0.08723
  11     751.5        0.2765        0.0028       12.2326       12.2355      11.958965       0.09023
  10     775.2        0.2792        0.0028       11.9763       11.9791      11.699937       0.09194
   9     799.0        0.2824        0.0029       11.7165       11.7194      11.437032       0.09332
   8     822.8        0.2860        0.0029       11.4597       11.4625      11.176551       0.09246
   7     846.6        0.2900        0.0029       11.2158       11.2187      10.928661       0.08799
   6     870.4        0.2944        0.0029       10.9849       10.9878      10.693399       0.08351
   5     894.1        0.2994        0.0029       10.7651       10.7680      10.468686       0.07976
   4     917.9        0.3049        0.0029       10.5519       10.5548      10.249944       0.07764
   3     941.7        0.3111        0.0029       10.3437       10.3466      10.035494       0.07612
   2     965.5        0.3182        0.0030       10.1415       10.1445       9.826262       0.07427
   1     989.2        0.3263        0.0030        9.9443        9.9472       9.620902       0.07288
   0    1013.0        0.3356        0.0030        9.7508        9.7538       9.418194       0.07197



 Wavenumbers:  5150. -  6150. cm-1, ATM      1
 LEVEL PRESSURE   UPWARD FLUX   DIFDOWN FLUX  DIRDOWN FLUX  DOWNWARD FLUX   NET FLUX    HEATING RATE
          mb          W/m2          W/m2          W/m2        W/m2          W/m2       degree/day
  60   .000300        0.6542        0.0000       43.1623       43.1623      42.508132       0.00000
  59    0.1000        0.6542        0.0000       43.1618       43.1618      42.507636       0.04198
  58    0.1403        0.6542        0.0000       43.1616       43.1616      42.507436       0.04192
  57    0.1968        0.6542        0.0000       43.1613       43.1613      42.507154       0.04208
  56    0.2760        0.6542        0.0000       43.1609       43.1609      42.506763       0.04166
  55    0.3871        0.6542        0.0000       43.1604       43.1604      42.506213       0.04177
  54    0.5430        0.6542        0.0000       43.1596       43.1596      42.505447       0.04149
  53    0.7617        0.6542        0.0000       43.1585       43.1585      42.504376       0.04131
  52     1.069        0.6542        0.0000       43.1570       43.1570      42.502867       0.04151
  51     1.499        0.6541        0.0000       43.1549       43.1549      42.500772       0.04109
  50     2.102        0.6541        0.0001       43.1519       43.1520      42.497872       0.04053
  49     2.949        0.6541        0.0001       43.1478       43.1479      42.493773       0.04087
  48     4.137        0.6541        0.0001       43.1420       43.1421      42.488058       0.04061
  47     5.803        0.6540        0.0001       43.1341       43.1342      42.480153       0.04004
  46     8.139        0.6540        0.0002       43.1231       43.1233      42.469272       0.03930
  45     11.42        0.6539        0.0003       43.1080       43.1083      42.454403       0.03828
  44     16.01        0.6538        0.0004       43.0877       43.0881      42.434315       0.03687
  43     22.46        0.6537        0.0006       43.0606       43.0612      42.407501       0.03509
  42     31.51        0.6535        0.0008       43.0250       43.0258      42.372289       0.03285
  41     44.20        0.6532        0.0011       42.9788       42.9800      42.326753       0.03028
  40     62.00        0.6528        0.0016       42.9210       42.9226      42.269723       0.02704
  39     85.78        0.6523        0.0022       42.8530       42.8552      42.202810       0.02375
  38     109.5        0.6518        0.0028       42.7920       42.7947      42.142905       0.02126
  37     133.1        0.6514        0.0033       42.7387       42.7420      42.090618       0.01878
  36     156.8        0.6509        0.0039       42.6882       42.6920      42.041141       0.01754
  35     180.6        0.6504        0.0045       42.6230       42.6275      41.977095       0.02274
  34     202.8        0.6500        0.0050       42.5159       42.5210      41.871027       0.04027
  33     228.4        0.6495        0.0056       42.3139       42.3195      41.670064       0.06631
  32     252.2        0.6490        0.0061       41.9776       41.9838      41.334725       0.11903
  31     276.0        0.6486        0.0066       41.4535       41.4601      40.811466       0.18574
  30     299.8        0.6482        0.0070       40.7249       40.7319      40.083759       0.25831
  29     323.5        0.6478        0.0074       39.8877       39.8951      39.247352       0.29689
  28     347.3        0.6474        0.0078       39.0169       39.0247      38.377256       0.30885
  27     371.1        0.6471        0.0081       38.1227       38.1308      37.483663       0.31719
  26     394.9        0.6468        0.0083       37.1332       37.1416      36.494731       0.35103
  25     418.6        0.6466        0.0085       36.0767       36.0853      35.438694       0.37485
  24     442.4        0.6463        0.0087       34.9878       34.9965      34.350150       0.38639
  23     466.2        0.6462        0.0089       33.9130       33.9219      33.275703       0.38138
  22     489.9        0.6460        0.0090       32.8776       32.8866      32.240617       0.36741
  21     513.7        0.6459        0.0092       31.8616       31.8708      31.224841       0.36056
  20     537.5        0.6459        0.0093       30.8862       30.8955      30.249545       0.34619
  19     561.3        0.6460        0.0094       29.9614       29.9709      29.324893       0.32821
  18     585.0        0.6461        0.0096       29.0936       29.1032      28.457067       0.30804
  17     608.8        0.6463        0.0097       28.3092       28.3189      27.672544       0.27847
  16     632.6        0.6466        0.0098       27.6023       27.6122      26.965551       0.25095
  15     656.4        0.6470        0.0100       26.9463       26.9563      26.309242       0.23296
  14     680.1        0.6476        0.0102       26.3465       26.3566      25.709011       0.21306
  13     703.9        0.6484        0.0103       25.8008       25.8111      25.162781       0.19389
  12     727.7        0.6493        0.0105       25.2959       25.3063      24.657012       0.17953
  11     751.5        0.6506        0.0106       24.8197       24.8303      24.179667       0.16944
  10     775.2        0.6523        0.0108       24.3704       24.3812      23.728881       0.16001
   9     799.0        0.6544        0.0109       23.9386       23.9494      23.295043       0.15399
   8     822.8        0.6571        0.0110       23.5160       23.5270      22.869912       0.15090
   7     846.6        0.6602        0.0111       23.1185       23.1297      22.469436       0.14215
   6     870.4        0.6639        0.0112       22.7378       22.7490      22.085152       0.13641
   5     894.1        0.6682        0.0113       22.3694       22.3808      21.712570       0.13225
   4     917.9        0.6734        0.0114       22.0080       22.0194      21.346029       0.13011
   3     941.7        0.6799        0.0116       21.6536       21.6651      20.985290       0.12805
   2     965.5        0.6879        0.0117       21.3116       21.3232      20.635300       0.12423
   1     989.2        0.6983        0.0118       20.9837       20.9955      20.297187       0.11999
   0    1013.0        0.7119        0.0119       20.6723       20.6842      19.972343       0.11533



 Wavenumbers:  6150. -  7700. cm-1, ATM      1
 LEVEL PRESSURE   UPWARD FLUX   DIFDOWN FLUX  DIRDOWN FLUX  DOWNWARD FLUX   NET FLUX    HEATING RATE
          mb          W/m2          W/m2          W/m2        W/m2          W/m2       degree/day
  60   .000300        0.9963        0.0000       79.8303       79.8303      78.834064       0.00000
  59    0.1000        0.9963        0.0000       79.8297       79.8297      78.833404       0.05585
  58    0.1403        0.9963        0.0000       79.8294       79.8294      78.833137       0.05594
  57    0.1968        0.9963        0.0000       79.8290       79.8290      78.832760       0.05627
  56    0.2760        0.9963        0.0000       79.8285       79.8285      78.832236       0.05582
  55    0.3871        0.9962        0.0000       79.8277       79.8277      78.831498       0.05608
  54    0.5430        0.9962        0.0001       79.8266       79.8267      78.830467       0.05582
  53    0.7617        0.9962        0.0001       79.8251       79.8252      78.829024       0.05568
  52     1.069        0.9962        0.0001       79.8230       79.8232      78.826988       0.05599
  51     1.499        0.9961        0.0002       79.8201       79.8203      78.824166       0.05536
  50     2.102        0.9961        0.0002       79.8161       79.8163      78.820266       0.05452
  49     2.949        0.9960        0.0003       79.8104       79.8107      78.814758       0.05490
  48     4.137        0.9959        0.0004       79.8025       79.8029      78.807083       0.05454
  47     5.803        0.9957        0.0006       79.7915       79.7921      78.796449       0.05387
  46     8.139        0.9954        0.0009       79.7763       79.7772      78.781753       0.05308
  45     11.42        0.9951        0.0012       79.7554       79.7566      78.761529       0.05207
  44     16.01        0.9946        0.0017       79.7268       79.7285      78.733902       0.05071
  43     22.46        0.9940        0.0024       79.6880       79.6904      78.696405       0.04907
  42     31.51        0.9931        0.0034       79.6357       79.6391      78.646036       0.04699
  41     44.20        0.9918        0.0047       79.5661       79.5708      78.579058       0.04454
  40     62.00        0.9899        0.0066       79.4752       79.4818      78.491836       0.04135
  39     85.78        0.9875        0.0091       79.3631       79.3722      78.384687       0.03803
  38     109.5        0.9851        0.0116       79.2576       79.2692      78.284093       0.03571
  37     133.1        0.9827        0.0140       79.1615       79.1755      78.192839       0.03277
  36     156.8        0.9804        0.0164       79.0685       79.0849      78.104557       0.03130
  35     180.6        0.9779        0.0189       78.9503       78.9692      77.991295       0.04021
  34     202.8        0.9756        0.0213       78.7654       78.7867      77.811060       0.06843
  33     228.4        0.9733        0.0236       78.4397       78.4634      77.490123       0.10589
  32     252.2        0.9709        0.0259       77.9555       77.9815      77.010546       0.17023
  31     276.0        0.9687        0.0280       77.2560       77.2840      76.315326       0.24677
  30     299.8        0.9665        0.0299       76.2260       76.2559      75.289455       0.36414
  29     323.5        0.9644        0.0317       74.8754       74.9071      73.942729       0.47803
  28     347.3        0.9624        0.0332       73.3253       73.3585      72.396139       0.54898
  27     371.1        0.9605        0.0346       71.7350       71.7696      70.809095       0.56334
  26     394.9        0.9587        0.0358       70.0622       70.0980      69.139301       0.59271
  25     418.6        0.9571        0.0369       68.3034       68.3402      67.383161       0.62336
  24     442.4        0.9555        0.0377       66.4305       66.4682      65.512644       0.66396
  23     466.2        0.9542        0.0385       64.5015       64.5400      63.585864       0.68393
  22     489.9        0.9530        0.0391       62.5877       62.6269      61.673915       0.67866
  21     513.7        0.9519        0.0397       60.6666       60.7063      59.754358       0.68136
  20     537.5        0.9511        0.0401       58.7766       58.8167      57.865628       0.67042
  19     561.3        0.9505        0.0405       56.9230       56.9635      56.013010       0.65760
  18     585.0        0.9502        0.0408       55.1061       55.1469      54.196749       0.64470
  17     608.8        0.9501        0.0411       53.3854       53.4265      52.476423       0.61065
  16     632.6        0.9503        0.0414       51.7565       51.7979      50.847536       0.57819
  15     656.4        0.9509        0.0416       50.1634       50.2050      49.254046       0.56562
  14     680.1        0.9520        0.0417       48.6176       48.6593      47.707300       0.54903
  13     703.9        0.9536        0.0418       47.1228       47.1646      46.211014       0.53112
  12     727.7        0.9559        0.0418       45.6549       45.6967      44.740864       0.52184
  11     751.5        0.9590        0.0418       44.1948       44.2365      43.277505       0.51943
  10     775.2        0.9633        0.0417       42.7609       42.8026      41.839295       0.51051
   9     799.0        0.9689        0.0415       41.3622       41.4037      40.434802       0.49854
   8     822.8        0.9761        0.0414       40.0135       40.0549      39.078746       0.48134
   7     846.6        0.9846        0.0413       38.7944       38.8356      37.851081       0.43577
   6     870.4        0.9944        0.0412       37.6887       37.7300      36.735541       0.39597
   5     894.1        1.0061        0.0412       36.6750       36.7163      35.710192       0.36396
   4     917.9        1.0200        0.0412       35.7259       35.7671      34.747126       0.34185
   3     941.7        1.0370        0.0412       34.8266       34.8679      33.830893       0.32522
   2     965.5        1.0579        0.0413       33.9769       34.0182      32.960300       0.30902
   1     989.2        1.0840        0.0413       33.1726       33.2138      32.129857       0.29471
   0    1013.0        1.1175        0.0413       32.4092       32.4505      31.332997       0.28291



 Wavenumbers:  7700. -  8050. cm-1, ATM      1
 LEVEL PRESSURE   UPWARD FLUX   DIFDOWN FLUX  DIRDOWN FLUX  DOWNWARD FLUX   NET FLUX    HEATING RATE
          mb          W/m2          W/m2          W/m2        W/m2          W/m2       degree/day
  60   .000300        0.5578        0.0000       18.8663       18.8663      18.308477       0.00000
  59    0.1000        0.5578        0.0000       18.8661       18.8661      18.308313       0.01388
  58    0.1403        0.5578        0.0000       18.8661       18.8661      18.308247       0.01396
  57    0.1968        0.5578        0.0000       18.8660       18.8660      18.308153       0.01404
  56    0.2760        0.5578        0.0000       18.8658       18.8658      18.308022       0.01392
  55    0.3871        0.5578        0.0000       18.8656       18.8656      18.307838       0.01399
  54    0.5430        0.5578        0.0000       18.8654       18.8654      18.307580       0.01393
  53    0.7617        0.5578        0.0000       18.8650       18.8650      18.307220       0.01390
  52     1.069        0.5578        0.0000       18.8645       18.8645      18.306711       0.01400
  51     1.499        0.5578        0.0001       18.8637       18.8638      18.306004       0.01387
  50     2.102        0.5578        0.0001       18.8627       18.8628      18.305023       0.01371
  49     2.949        0.5578        0.0001       18.8613       18.8614      18.303632       0.01387
  48     4.137        0.5578        0.0002       18.8593       18.8595      18.301680       0.01387
  47     5.803        0.5578        0.0002       18.8565       18.8567      18.298951       0.01382
  46     8.139        0.5578        0.0003       18.8526       18.8529      18.295135       0.01378
  45     11.42        0.5578        0.0005       18.8471       18.8476      18.289794       0.01375
  44     16.01        0.5577        0.0007       18.8394       18.8401      18.282332       0.01370
  43     22.46        0.5577        0.0009       18.8287       18.8296      18.271896       0.01366
  42     31.51        0.5577        0.0013       18.8137       18.8150      18.257312       0.01361
  41     44.20        0.5576        0.0019       18.7927       18.7946      18.236920       0.01356
  40     62.00        0.5576        0.0026       18.7637       18.7662      18.208678       0.01339
  39     85.78        0.5575        0.0036       18.7253       18.7288      18.171330       0.01326
  38     109.5        0.5574        0.0046       18.6866       18.6912      18.133773       0.01333
  37     133.1        0.5574        0.0055       18.6498       18.6553      18.097971       0.01286
  36     156.8        0.5573        0.0064       18.6143       18.6208      18.063462       0.01224
  35     180.6        0.5573        0.0074       18.5770       18.5844      18.027150       0.01289
  34     202.8        0.5572        0.0083       18.5414       18.5497      17.992501       0.01316
  33     228.4        0.5572        0.0093       18.5053       18.5146      17.957443       0.01157
  32     252.2        0.5572        0.0103       18.4695       18.4797      17.922553       0.01238
  31     276.0        0.5572        0.0112       18.4343       18.4455      17.888279       0.01217
  30     299.8        0.5572        0.0121       18.3990       18.4111      17.853910       0.01220
  29     323.5        0.5572        0.0131       18.3637       18.3768      17.819549       0.01220
  28     347.3        0.5572        0.0140       18.3287       18.3427      17.785503       0.01208
  27     371.1        0.5573        0.0149       18.2942       18.3091      17.751849       0.01195
  26     394.9        0.5574        0.0158       18.2591       18.2750      17.717600       0.01216
  25     418.6        0.5575        0.0168       18.2239       18.2407      17.683213       0.01221
  24     442.4        0.5576        0.0177       18.1885       18.2062      17.648551       0.01230
  23     466.2        0.5578        0.0186       18.1527       18.1712      17.613467       0.01245
  22     489.9        0.5580        0.0195       18.1168       18.1363      17.578328       0.01247
  21     513.7        0.5582        0.0204       18.0802       18.1006      17.542402       0.01275
  20     537.5        0.5585        0.0213       18.0433       18.0646      17.506092       0.01289
  19     561.3        0.5588        0.0222       18.0059       18.0280      17.469238       0.01308
  18     585.0        0.5591        0.0230       17.9670       17.9901      17.430934       0.01360
  17     608.8        0.5596        0.0239       17.9277       17.9516      17.392033       0.01381
  16     632.6        0.5600        0.0248       17.8876       17.9124      17.352405       0.01407
  15     656.4        0.5606        0.0256       17.8459       17.8715      17.310941       0.01472
  14     680.1        0.5612        0.0265       17.8028       17.8293      17.268103       0.01521
  13     703.9        0.5619        0.0273       17.7582       17.7855      17.223635       0.01578
  12     727.7        0.5627        0.0281       17.7111       17.7393      17.176595       0.01670
  11     751.5        0.5636        0.0290       17.6610       17.6900      17.126342       0.01784
  10     775.2        0.5648        0.0298       17.6080       17.6378      17.073017       0.01893
   9     799.0        0.5660        0.0306       17.5517       17.5823      17.016227       0.02016
   8     822.8        0.5675        0.0314       17.4915       17.5228      16.955320       0.02162
   7     846.6        0.5691        0.0321       17.4296       17.4617      16.892581       0.02227
   6     870.4        0.5709        0.0329       17.3664       17.3993      16.828396       0.02278
   5     894.1        0.5728        0.0336       17.3018       17.3355      16.762691       0.02332
   4     917.9        0.5748        0.0344       17.2350       17.2694      16.694588       0.02417
   3     941.7        0.5771        0.0351       17.1659       17.2010      16.623879       0.02510
   2     965.5        0.5796        0.0358       17.0947       17.1305      16.550924       0.02590
   1     989.2        0.5823        0.0365       17.0216       17.0580      16.475719       0.02669
   0    1013.0        0.5853        0.0372       16.9463       16.9835      16.398188       0.02753



 Wavenumbers:  8050. - 12850. cm-1, ATM      1
 LEVEL PRESSURE   UPWARD FLUX   DIFDOWN FLUX  DIRDOWN FLUX  DOWNWARD FLUX   NET FLUX    HEATING RATE
          mb          W/m2          W/m2          W/m2        W/m2          W/m2       degree/day
  60   .000300        7.7867        0.0000      264.1420      264.1420     256.355299       0.00000
  59    0.1000        7.7865        0.0002      264.1416      264.1418     256.355299      -0.00000
  58    0.1403        7.7864        0.0003      264.1414      264.1417     256.355299       0.00000
  57    0.1968        7.7863        0.0004      264.1412      264.1416     256.355299       0.00000
  56    0.2760        7.7861        0.0006      264.1409      264.1414     256.355299       0.00000
  55    0.3871        7.7859        0.0008      264.1404      264.1412     256.355299      -0.00000
  54    0.5430        7.7856        0.0011      264.1398      264.1409     256.355299      -0.00000
  53    0.7617        7.7852        0.0016      264.1389      264.1405     256.355299       0.00000
  52     1.069        7.7846        0.0022      264.1377      264.1399     256.355299       0.00000
  51     1.499        7.7838        0.0031      264.1360      264.1391     256.355299      -0.00000
  50     2.102        7.7827        0.0043      264.1337      264.1380     256.355299       0.00000
  49     2.949        7.7811        0.0060      264.1303      264.1363     256.355299      -0.00000
  48     4.137        7.7788        0.0085      264.1256      264.1341     256.355299       0.00000
  47     5.803        7.7756        0.0119      264.1191      264.1309     256.355299       0.00000
  46     8.139        7.7712        0.0166      264.1099      264.1265     256.355299       0.00000
  45     11.42        7.7650        0.0233      264.0970      264.1203     256.355299      -0.00000
  44     16.01        7.7563        0.0326      264.0790      264.1116     256.355299       0.00000
  43     22.46        7.7441        0.0457      264.0537      264.0994     256.355299       0.00000
  42     31.51        7.7270        0.0641      264.0183      264.0823     256.355299      -0.00000
  41     44.20        7.7030        0.0899      263.9685      264.0583     256.355299       0.00000
  40     62.00        7.6695        0.1258      263.8990      264.0248     256.355299      -0.00000
  39     85.78        7.6247        0.1739      263.8061      263.9800     256.355299       0.00000
  38     109.5        7.5792        0.2227      263.6990      263.9217     256.342530       0.00453
  37     133.1        7.5354        0.2697      263.5959      263.8656     256.330271       0.00440
  36     156.8        7.4927        0.3154      263.4949      263.8103     256.317650       0.00448
  35     180.6        7.4472        0.3640      263.3827      263.7468     256.299536       0.00643
  34     202.8        7.4035        0.4108      263.2573      263.6682     256.264686       0.01323
  33     228.4        7.3588        0.4584      263.0871      263.5456     256.186704       0.02573
  32     252.2        7.3141        0.5061      262.8493      263.3554     256.041265       0.05162
  31     276.0        7.2701        0.5530      262.5163      263.0692     255.799173       0.08593
  30     299.8        7.2258        0.5999      262.0523      262.6522     255.426403       0.13232
  29     323.5        7.1817        0.6466      261.4545      262.1011     254.919418       0.17996
  28     347.3        7.1383        0.6925      260.7411      261.4337     254.295366       0.22151
  27     371.1        7.0958        0.7374      259.9465      260.6839     253.588136       0.25104
  26     394.9        7.0531        0.7824      259.0340      259.8164     252.763288       0.29279
  25     418.6        7.0111        0.8266      257.9991      258.8257     251.814661       0.33672
  24     442.4        6.9697        0.8700      256.8167      257.6868     250.717093       0.38959
  23     466.2        6.9288        0.9128      255.4951      256.4079     249.479029       0.43946
  22     489.9        6.8892        0.9543      254.0551      255.0093     248.120139       0.48235
  21     513.7        6.8502        0.9950      252.4639      253.4590     246.608775       0.53647
  20     537.5        6.8126        1.0344      250.7367      251.7712     244.958581       0.58575
  19     561.3        6.7764        1.0724      248.8688      249.9412     243.164788       0.63672
  18     585.0        6.7410        1.1099      246.8486      247.9585     241.217421       0.69123
  17     608.8        6.7073        1.1461      244.7431      245.8891     239.181792       0.72256
  16     632.6        6.6754        1.1809      242.5587      243.7396     237.064191       0.75166
  15     656.4        6.6451        1.2151      240.2294      241.4445     234.799425       0.80390
  14     680.1        6.6173        1.2476      237.7741      239.0217     232.404413       0.85013
  13     703.9        6.5925        1.2784      235.2061      236.4845     229.892043       0.89179
  12     727.7        6.5708        1.3080      232.4891      233.7971     227.226329       0.94622
  11     751.5        6.5533        1.3360      229.5806      230.9166     224.363273       1.01627
  10     775.2        6.5412        1.3618      226.5166      227.8784     221.337182       1.07414
   9     799.0        6.5356        1.3855      223.3017      224.6871     218.151502       1.13079
   8     822.8        6.5368        1.4078      219.9631      221.3709     214.834113       1.17754
   7     846.6        6.5434        1.4297      216.7285      218.1581     211.614769       1.14273
   6     870.4        6.5559        1.4510      213.6058      215.0568     208.500882       1.10530
   5     894.1        6.5754        1.4717      210.5874      212.0592     205.483823       1.07093
   4     917.9        6.6033        1.4921      207.6235      209.1156     202.512244       1.05479
   3     941.7        6.6422        1.5119      204.7054      206.2172     199.575054       1.04258
   2     965.5        6.6942        1.5309      201.8531      203.3840     196.689748       1.02416
   1     989.2        6.7630        1.5491      199.0687      200.6178     193.854819       1.00607
   0    1013.0        6.8535        1.5666      196.3517      197.9182     191.064729       0.99058



 Wavenumbers: 12850. - 16000. cm-1, ATM      1
 LEVEL PRESSURE   UPWARD FLUX   DIFDOWN FLUX  DIRDOWN FLUX  DOWNWARD FLUX   NET FLUX    HEATING RATE
          mb          W/m2          W/m2          W/m2        W/m2          W/m2       degree/day
  60   .000300       10.4216        0.0000      165.5083      165.5083     155.086713       0.00000
  59    0.1000       10.4212        0.0004      165.5006      165.5010     155.079847       0.58118
  58    0.1403       10.4211        0.0006      165.4975      165.4981     155.077042       0.58736
  57    0.1968       10.4209        0.0009      165.4931      165.4940     155.073090       0.59030
  56    0.2760       10.4206        0.0012      165.4870      165.4882     155.067616       0.58333
  55    0.3871       10.4203        0.0017      165.4786      165.4803     155.060029       0.57629
  54    0.5430       10.4198        0.0024      165.4670      165.4694     155.049622       0.56334
  53    0.7617       10.4192        0.0034      165.4511      165.4546     155.035331       0.55147
  52     1.069       10.4185        0.0048      165.4293      165.4341     155.015564       0.54371
  51     1.499       10.4177        0.0067      165.3994      165.4062     154.988470       0.53138
  50     2.102       10.4170        0.0094      165.3580      165.3674     154.950399       0.53228
  49     2.949       10.4166        0.0132      165.2970      165.3102     154.893610       0.56609
  48     4.137       10.4171        0.0185      165.2081      165.2266     154.809554       0.59731
  47     5.803       10.4184        0.0259      165.0838      165.1097     154.691359       0.59875
  46     8.139       10.4199        0.0363      164.9194      164.9557     154.535772       0.56191
  45     11.42       10.4206        0.0508      164.7110      164.7618     154.341148       0.50109
  44     16.01       10.4193        0.0710      164.4496      164.5206     154.101321       0.44021
  43     22.46       10.4142        0.0992      164.1232      164.2224     153.808230       0.38352
  42     31.51       10.4014        0.1387      163.7333      163.8721     153.470680       0.31489
  41     44.20       10.3745        0.1941      163.2942      163.4883     153.113772       0.23736
  40     62.00       10.3276        0.2710      162.8001      163.0711     152.743464       0.17557
  39     85.78       10.2532        0.3736      162.2921      162.6657     152.412490       0.11748
  38     109.5       10.1732        0.4778      161.8657      162.3435     152.170243       0.08599
  37     133.1       10.0942        0.5779      161.4878      162.0657     151.971559       0.07135
  36     156.8       10.0160        0.6750      161.1394      161.8143     151.798292       0.06144
  35     180.6        9.9315        0.7779      160.7877      161.5655     151.634052       0.05831
  34     202.8        9.8486        0.8767      160.4637      161.3404     151.491742       0.05403
  33     228.4        9.7634        0.9772      160.1378      161.1150     151.351618       0.04623
  32     252.2        9.6774        1.0777      159.8116      160.8892     151.211832       0.04962
  31     276.0        9.5920        1.1767      159.4889      160.6656     151.073548       0.04909
  30     299.8        9.5057        1.2762      159.1610      160.4373     150.931556       0.05040
  29     323.5        9.4191        1.3756      158.8277      160.2034     150.784263       0.05228
  28     347.3        9.3333        1.4738      158.4908      159.9647     150.631401       0.05426
  27     371.1        9.2485        1.5705      158.1519      159.7224     150.473877       0.05591
  26     394.9        9.1627        1.6681      157.8006      159.4687     150.305995       0.05959
  25     418.6        9.0772        1.7651      157.4410      159.2062     150.128934       0.06285
  24     442.4        8.9921        1.8616      157.0712      158.9329     149.940795       0.06678
  23     466.2        8.9070        1.9579      156.6901      158.6480     149.741004       0.07092
  22     489.9        8.8232        2.0527      156.3015      158.3541     149.530891       0.07458
  21     513.7        8.7394        2.1474      155.8963      158.0437     149.304298       0.08043
  20     537.5        8.6569        2.2407      155.4783      157.7189     149.062019       0.08600
  19     561.3        8.5757        2.3326      155.0448      157.3774     148.801618       0.09243
  18     585.0        8.4941        2.4250      154.5868      157.0118     148.517674       0.10079
  17     608.8        8.4140        2.5158      154.1187      156.6345     148.220577       0.10546
  16     632.6        8.3353        2.6050      153.6392      156.2442     147.908934       0.11062
  15     656.4        8.2567        2.6943      153.1343      155.8286     147.571930       0.11962
  14     680.1        8.1800        2.7816      152.6085      155.3901     147.210130       0.12842
  13     703.9        8.1054        2.8670      152.0585      154.9256     146.820192       0.13841
  12     727.7        8.0321        2.9516      151.4720      154.4236     146.391521       0.15216
  11     751.5        7.9605        3.0351      150.8438      153.8790     145.918489       0.16791
  10     775.2        7.8919        3.1164      150.1770      153.2934     145.401513       0.18351
   9     799.0        7.8268        3.1952      149.4683      152.6636     144.836724       0.20048
   8     822.8        7.7642        3.2730      148.7122      151.9852     144.220971       0.21857
   7     846.6        7.7039        3.3496      147.9462      151.2957     143.591817       0.22332
   6     870.4        7.6463        3.4245      147.1762      150.6007     142.954449       0.22624
   5     894.1        7.5914        3.4978      146.4037      149.9015     142.310073       0.22873
   4     917.9        7.5392        3.5704      145.6187      149.1891     141.649909       0.23433
   3     941.7        7.4902        3.6418      144.8212      148.4630     140.972764       0.24036
   2     965.5        7.4454        3.7115      144.0181      147.7295     140.284146       0.24443
   1     989.2        7.4050        3.7794      143.2098      146.9892     139.584180       0.24841
   0    1013.0        7.3698        3.8458      142.3972      146.2429     138.873142       0.25244



 Wavenumbers: 16000. - 22650. cm-1, ATM      1
 LEVEL PRESSURE   UPWARD FLUX   DIFDOWN FLUX  DIRDOWN FLUX  DOWNWARD FLUX   NET FLUX    HEATING RATE
          mb          W/m2          W/m2          W/m2        W/m2          W/m2       degree/day
  60   .000300       32.5576        0.0000      263.8846      263.8846     231.326987       0.00000
  59    0.1000       32.5559        0.0026      263.8795      263.8820     231.326173       0.06894
  58    0.1403       32.5552        0.0036      263.8771      263.8807     231.325520       0.13663
  57    0.1968       32.5543        0.0050      263.8736      263.8786     231.324340       0.17627
  56    0.2760       32.5531        0.0071      263.8683      263.8754     231.322265       0.22112
  55    0.3871       32.5515        0.0099      263.8603      263.8702     231.318767       0.26575
  54    0.5430       32.5494        0.0139      263.8483      263.8623     231.312900       0.31755
  53    0.7617       32.5467        0.0195      263.8297      263.8492     231.302549       0.39942
  52     1.069       32.5435        0.0274      263.8000      263.8274     231.283941       0.51185
  51     1.499       32.5400        0.0384      263.7523      263.7906     231.250631       0.65329
  50     2.102       32.5372        0.0536      263.6735      263.7271     231.189865       0.84960
  49     2.949       32.5370        0.0751      263.5387      263.6138     231.076778       1.12728
  48     4.137       32.5418        0.1053      263.3185      263.4238     230.882044       1.38379
  47     5.803       32.5521        0.1475      262.9891      263.1366     230.584498       1.50731
  46     8.139       32.5651        0.2064      262.5378      262.7442     230.179111       1.46408
  45     11.42       32.5754        0.2886      261.9573      262.2459     229.670527       1.30942
  44     16.01       32.5772        0.4034      261.2259      261.6292     229.052049       1.13523
  43     22.46       32.5625        0.5636      260.3119      260.8755     228.313004       0.96707
  42     31.51       32.5119        0.7872      259.2197      260.0069     227.495050       0.76304
  41     44.20       32.3927        1.0999      257.9846      259.0845     226.691776       0.53421
  40     62.00       32.1757        1.5336      256.5754      258.1090     225.933367       0.35957
  39     85.78       31.8225        2.1094      255.0793      257.1887     225.366153       0.20134
  38     109.5       31.4287        2.6905      253.7763      256.4668     225.038141       0.11643
  37     133.1       31.0397        3.2453      252.5821      255.8274     224.787773       0.08991
  36     156.8       30.6554        3.7810      251.4550      255.2360     224.580578       0.07347
  35     180.6       30.2398        4.3463      250.3010      254.6472     224.407436       0.06147
  34     202.8       29.8327        4.8867      249.2319      254.1185     224.285874       0.04615
  33     228.4       29.4135        5.4339      248.1647      253.5986     224.185107       0.03325
  32     252.2       28.9904        5.9785      247.1105      253.0890     224.098540       0.03073
  31     276.0       28.5696        6.5128      246.0838      252.5966     224.027002       0.02539
  30     299.8       28.1432        7.0474      245.0616      252.1090     223.965873       0.02170
  29     323.5       27.7142        7.5792      244.0446      251.6238     223.909539       0.02000
  28     347.3       27.2877        8.1024      243.0427      251.1451     223.857424       0.01850
  27     371.1       26.8652        8.6152      242.0595      250.6746     223.809438       0.01703
  26     394.9       26.4355        9.1313      241.0675      250.1988     223.763304       0.01638
  25     418.6       26.0056        9.6424      240.0820      249.7243     223.718690       0.01584
  24     442.4       25.5750       10.1492      239.1008      249.2500     223.674969       0.01552
  23     466.2       25.1422       10.6534      238.1207      248.7741     223.631925       0.01528
  22     489.9       24.7131       11.1483      237.1545      248.3028     223.589696       0.01499
  21     513.7       24.2805       11.6423      236.1849      247.8273     223.546771       0.01524
  20     537.5       23.8509       12.1281      235.2259      247.3539     223.502975       0.01555
  19     561.3       23.4238       12.6064      234.2752      246.8815     223.457750       0.01605
  18     585.0       22.9897       13.0876      233.3120      246.3996     223.409885       0.01699
  17     608.8       22.5590       13.5605      232.3588      245.9192     223.360276       0.01761
  16     632.6       22.1315       14.0252      231.4148      245.4400     223.308584       0.01835
  15     656.4       21.6984       14.4914      230.4598      244.9512     223.252852       0.01978
  14     680.1       21.2684       14.9496      229.5116      244.4612     223.192775       0.02132
  13     703.9       20.8416       15.4002      228.5688      243.9690     223.127405       0.02320
  12     727.7       20.4115       15.8497      227.6162      243.4660     223.054507       0.02588
  11     751.5       19.9782       16.2981      226.6519      242.9500     222.971837       0.02934
  10     775.2       19.5472       16.7398      225.6862      242.4260     222.878838       0.03301
   9     799.0       19.1185       17.1748      224.7178      241.8926     222.774093       0.03718
   8     822.8       18.6853       17.6099      223.7323      241.3423     222.656954       0.04158
   7     846.6       18.2523       18.0404      222.7462      240.7866     222.534356       0.04352
   6     870.4       17.8217       18.4639      221.7652      240.2291     222.407436       0.04505
   5     894.1       17.3934       18.8807      220.7894      239.6701     222.276734       0.04639
   4     917.9       16.9628       19.2953      219.8079      239.1031     222.140286       0.04843
   3     941.7       16.5315       19.7062      218.8232      238.5294     221.997916       0.05054
   2     965.5       16.1025       20.1104      217.8429      237.9533     221.850754       0.05224
   1     989.2       15.6760       20.5080      216.8673      237.3753     221.699233       0.05377
   0    1013.0       15.2519       20.8991      215.8964      236.7955     221.543593       0.05526



 Wavenumbers: 22650. - 29000. cm-1, ATM      1
 LEVEL PRESSURE   UPWARD FLUX   DIFDOWN FLUX  DIRDOWN FLUX  DOWNWARD FLUX   NET FLUX    HEATING RATE
          mb          W/m2          W/m2          W/m2        W/m2          W/m2       degree/day
  60   .000300       24.2895        0.0000       99.5805       99.5805      75.290983       0.00000
  59    0.1000       24.2877        0.0033       99.5754       99.5787      75.290983      -0.00000
  58    0.1403       24.2870        0.0046       99.5734       99.5780      75.290983      -0.00000
  57    0.1968       24.2860        0.0064       99.5705       99.5770      75.290983       0.00000
  56    0.2760       24.2846        0.0090       99.5665       99.5755      75.290983       0.00000
  55    0.3871       24.2826        0.0126       99.5609       99.5736      75.290983       0.00000
  54    0.5430       24.2798        0.0177       99.5531       99.5708      75.290983       0.00000
  53    0.7617       24.2759        0.0248       99.5421       99.5669      75.290983       0.00000
  52     1.069       24.2705        0.0349       99.5266       99.5614      75.290983       0.00000
  51     1.499       24.2628        0.0488       99.5050       99.5538      75.290983       0.00000
  50     2.102       24.2523        0.0682       99.4751       99.5433      75.290983      -0.00000
  49     2.949       24.2373        0.0957       99.4326       99.5283      75.290983      -0.00000
  48     4.137       24.2162        0.1342       99.3731       99.5072      75.290983       0.00000
  47     5.803       24.1868        0.1879       99.2899       99.4778      75.290983       0.00000
  46     8.139       24.1456        0.2631       99.1735       99.4366      75.290983       0.00000
  45     11.42       24.0878        0.3682       99.0106       99.3788      75.290983       0.00000
  44     16.01       24.0068        0.5147       98.7831       99.2978      75.290983      -0.00000
  43     22.46       23.8932        0.7192       98.4650       99.1842      75.290983       0.00000
  42     31.51       23.7337        1.0041       98.0206       99.0247      75.290983      -0.00000
  41     44.20       23.5092        1.4006       97.3996       98.8002      75.290983       0.00000
  40     62.00       23.1954        1.9462       96.5402       98.4864      75.290983      -0.00000
  39     85.78       22.7751        2.6616       95.4045       98.0661      75.290983       0.00000
  38     109.5       22.3465        3.3730       94.2645       97.6375      75.290983      -0.00000
  37     133.1       21.9326        4.0434       93.1802       97.2236      75.290983       0.00000
  36     156.8       21.5286        4.6822       92.1373       96.8195      75.290983       0.00000
  35     180.6       21.0977        5.3469       91.0418       96.3887      75.290983      -0.00000
  34     202.8       20.6814        5.9730       89.9994       95.9724      75.290983       0.00000
  33     228.4       20.2555        6.5979       88.9485       95.5465      75.290983      -0.00000
  32     252.2       19.8269        7.2108       87.9071       95.1179      75.290983       0.00000
  31     276.0       19.4019        7.8032       86.8897       94.6929      75.290983       0.00000
  30     299.8       18.9721        8.3870       85.8760       94.2630      75.290983       0.00000
  29     323.5       18.5398        8.9590       84.8718       93.8308      75.290983      -0.00000
  28     347.3       18.1098        9.5131       83.8878       93.4008      75.290983      -0.00000
  27     371.1       17.6838       10.0478       82.9270       92.9748      75.290983       0.00000
  26     394.9       17.2503       10.5777       81.9637       92.5413      75.290983       0.00000
  25     418.6       16.8164       11.0940       81.0134       92.1074      75.290983       0.00000
  24     442.4       16.3812       11.5978       80.0744       91.6722      75.290983      -0.00000
  23     466.2       15.9434       12.0908       79.1436       91.2344      75.290983      -0.00000
  22     489.9       15.5090       12.5666       78.2334       90.8000      75.290983       0.00000
  21     513.7       15.0705       13.0337       77.3278       90.3615      75.290983       0.00000
  20     537.5       14.6345       13.4851       76.4403       89.9254      75.290983       0.00000
  19     561.3       14.2003       13.9220       75.5692       89.4912      75.290983      -0.00000
  18     585.0       13.7584       14.3539       74.6955       89.0494      75.290983       0.00000
  17     608.8       13.3193       14.7708       73.8395       88.6102      75.290983       0.00000
  16     632.6       12.8827       15.1731       73.0006       88.1737      75.290983      -0.00000
  15     656.4       12.4397       15.5693       72.1615       87.7307      75.290983       0.00000
  14     680.1       11.9991       15.9516       71.3385       87.2901      75.290983      -0.00000
  13     703.9       11.5607       16.3204       70.5313       86.8517      75.290983       0.00000
  12     727.7       11.1179       16.6816       69.7272       86.4088      75.290983       0.00000
  11     751.5       10.6705       17.0350       68.9265       85.9615      75.290983       0.00000
  10     775.2       10.2241       17.3765       68.1386       85.5150      75.290983       0.00000
   9     799.0        9.7785       17.7063       67.3632       85.0695      75.290983       0.00000
   8     822.8        9.3267       18.0297       66.5880       84.6177      75.290983      -0.00000
   7     846.6        8.8740       18.3428       65.8222       84.1650      75.290983       0.00000
   6     870.4        8.4228       18.6442       65.0696       83.7138      75.290983       0.00000
   5     894.1        7.9732       18.9342       64.3300       83.2641      75.290983       0.00000
   4     917.9        7.5200       19.2161       63.5950       82.8110      75.290983       0.00000
   3     941.7        7.0649       19.4889       62.8670       82.3559      75.290983      -0.00000
   2     965.5        6.6112       19.7509       62.1513       81.9022      75.290983       0.00000
   1     989.2        6.1590       20.0022       61.4478       81.4500      75.290983       0.00000
   0    1013.0        5.7082       20.2432       60.7560       80.9992      75.290983       0.00000



 Wavenumbers: 29000. - 38000. cm-1, ATM      1
 LEVEL PRESSURE   UPWARD FLUX   DIFDOWN FLUX  DIRDOWN FLUX  DOWNWARD FLUX   NET FLUX    HEATING RATE
          mb          W/m2          W/m2          W/m2        W/m2          W/m2       degree/day
  60   .000300        6.1628        0.0000       35.1162       35.1162      28.953429       0.00000
  59    0.1000        6.1609        0.0028       35.0796       35.0823      28.921371       2.71361
  58    0.1403        6.1603        0.0039       35.0522       35.0560      28.895743       5.36661
  57    0.1968        6.1594        0.0054       35.0036       35.0090      28.849611       6.89060
  56    0.2760        6.1583        0.0076       34.9200       34.9276      28.769296       8.55787
  55    0.3871        6.1568        0.0105       34.7826       34.7932      28.636375      10.09666
  54    0.5430        6.1550        0.0146       34.5606       34.5752      28.420236      11.70000
  53    0.7617        6.1530        0.0201       34.1930       34.2131      28.060149      13.89496
  52     1.069        6.1510        0.0274       33.5996       33.6270      27.475934      16.07000
  51     1.499        6.1498        0.0367       32.7110       32.7477      26.597876      17.22067
  50     2.102        6.1510        0.0484       31.4956       31.5439      25.392943      16.84660
  49     2.949        6.1575        0.0636       30.0178       30.0813      23.923770      14.64512
  48     4.137        6.1733        0.0835       28.4805       28.5640      22.390738      10.89381
  47     5.803        6.2005        0.1099       27.0068       27.1167      20.916244       7.46952
  46     8.139        6.2390        0.1456       25.6553       25.8009      19.561888       4.89135
  45     11.42        6.2872        0.1941       24.4392       24.6332      18.346037       3.13038
  44     16.01        6.3455        0.2595       23.3143       23.5738      17.228322       2.05158
  43     22.46        6.4156        0.3482       22.2449       22.5931      16.177486       1.37506
  42     31.51        6.4900        0.4690       21.2457       21.7148      15.224753       0.88877
  41     44.20        6.5479        0.6358       20.3353       20.9711      14.423212       0.53306
  40     62.00        6.5755        0.8628       19.4599       20.3227      13.747206       0.32050
  39     85.78        6.5338        1.1608       18.6524       19.8132      13.279422       0.16604
  38     109.5        6.4442        1.4556       18.0093       19.4649      13.020726       0.09183
  37     133.1        6.3466        1.7267       17.4472       19.1739      12.827298       0.06946
  36     156.8        6.2463        1.9820       16.9360       18.9180      12.671738       0.05516
  35     180.6        6.1306        2.2424       16.4306       18.6730      12.542412       0.04591
  34     202.8        6.0097        2.4834       15.9779       18.4613      12.451578       0.03449
  33     228.4        5.8815        2.7197       15.5385       18.2582      12.376767       0.02468
  32     252.2        5.7497        2.9467       15.1159       18.0626      12.312913       0.02267
  31     276.0        5.6161        3.1619       14.7148       17.8767      12.260646       0.01855
  30     299.8        5.4786        3.3698       14.3254       17.6953      12.216607       0.01563
  29     323.5        5.3393        3.5687       13.9474       17.5161      12.176794       0.01413
  28     347.3        5.1998        3.7568       13.5839       17.3407      12.140883       0.01275
  27     371.1        5.0606        3.9339       13.2356       17.1695      12.108864       0.01137
  26     394.9        4.9182        4.1050       12.8925       16.9975      12.079265       0.01051
  25     418.6        4.7750        4.2672       12.5598       16.8270      12.051938       0.00970
  24     442.4        4.6309        4.4212       12.2364       16.6576      12.026650       0.00898
  23     466.2        4.4854        4.5676       11.9211       16.4887      12.003327       0.00828
  22     489.9        4.3404        4.7048       11.6177       16.3225      11.982063       0.00755
  21     513.7        4.1936        4.8353       11.3205       16.1558      11.962167       0.00706
  20     537.5        4.0473        4.9573       11.0337       15.9910      11.943636       0.00658
  19     561.3        3.9013        5.0713       10.7563       15.8276      11.926321       0.00615
  18     585.0        3.7524        5.1799       10.4822       15.6621      11.909709       0.00590
  17     608.8        3.6042        5.2807       10.2175       15.4983      11.894091       0.00554
  16     632.6        3.4566        5.3741        9.9619       15.3360      11.879388       0.00522
  15     656.4        3.3066        5.4620        9.7098       15.1718      11.865254       0.00502
  14     680.1        3.1571        5.5429        9.4661       15.0090      11.851923       0.00473
  13     703.9        3.0082        5.6171        9.2304       14.8476      11.839337       0.00447
  12     727.7        2.8576        5.6860        8.9990       14.6849      11.827273       0.00428
  11     751.5        2.7053        5.7494        8.7717       14.5210      11.815720       0.00410
  10     775.2        2.5531        5.8068        8.5512       14.3579      11.804793       0.00388
   9     799.0        2.4011        5.8583        8.3372       14.1955      11.794455       0.00367
   8     822.8        2.2467        5.9050        8.1262       14.0312      11.784485       0.00354
   7     846.6        2.0919        5.9461        7.9207       13.8668      11.774934       0.00339
   6     870.4        1.9375        5.9818        7.7216       13.7033      11.765830       0.00323
   5     894.1        1.7835        6.0122        7.5285       13.5406      11.757143       0.00308
   4     917.9        1.6281        6.0377        7.3392       13.3769      11.748770       0.00297
   3     941.7        1.4720        6.0584        7.1543       13.2127      11.740724       0.00286
   2     965.5        1.3163        6.0743        6.9751       13.0493      11.733058       0.00272
   1     989.2        1.1609        6.0854        6.8012       12.8867      11.725751       0.00259
   0    1013.0        1.0059        6.0921        6.6326       12.7247      11.718787       0.00247



 Wavenumbers: 38000. - 50000. cm-1, ATM      1
 LEVEL PRESSURE   UPWARD FLUX   DIFDOWN FLUX  DIRDOWN FLUX  DOWNWARD FLUX   NET FLUX    HEATING RATE
          mb          W/m2          W/m2          W/m2        W/m2          W/m2       degree/day
  60   .000300        0.0073        0.0000        2.1659        2.1659       2.158632       0.00000
  59    0.1000        0.0068        0.0006        2.1450        2.1456       2.138805       1.67827
  58    0.1403        0.0066        0.0009        2.1298        2.1307       2.124086       3.08238
  57    0.1968        0.0063        0.0012        2.1033        2.1045       2.098183       3.86895
  56    0.2760        0.0060        0.0016        2.0585        2.0601       2.054103       4.69695
  55    0.3871        0.0056        0.0021        1.9864        1.9885       1.982935       5.40594
  54    0.5430        0.0050        0.0028        1.8733        1.8761       1.871064       6.05575
  53    0.7617        0.0044        0.0034        1.6951        1.6985       1.694155       6.82653
  52     1.069        0.0036        0.0039        1.4292        1.4331       1.429548       7.27854
  51     1.499        0.0028        0.0039        1.0820        1.0859       1.083148       6.79367
  50     2.102        0.0020        0.0033        0.7082        0.7116       0.709547       5.22346
  49     2.949        0.0014        0.0026        0.4047        0.4073       0.405861       3.02723
  48     4.137        0.0010        0.0019        0.2229        0.2249       0.223869       1.29324
  47     5.803        0.0007        0.0014        0.1224        0.1238       0.123096       0.51050
  46     8.139        0.0005        0.0011        0.0681        0.0692       0.068674       0.19655
  45     11.42        0.0003        0.0008        0.0377        0.0385       0.038216       0.07842
  44     16.01        0.0002        0.0005        0.0194        0.0200       0.019757       0.03388
  43     22.46        0.0001        0.0003        0.0088        0.0091       0.008969       0.01412
  42     31.51        0.0001        0.0002        0.0034        0.0036       0.003539       0.00507
  41     44.20        0.0000        0.0001        0.0012        0.0012       0.001219       0.00154
  40     62.00        0.0000        0.0000        0.0003        0.0004       0.000344       0.00041
  39     85.78        0.0000        0.0000        0.0001        0.0001       0.000081       0.00009
  38     109.5        0.0000        0.0000        0.0000        0.0000       0.000021       0.00002
  37     133.1        0.0000        0.0000        0.0000        0.0000       0.000006       0.00001
  36     156.8        0.0000        0.0000        0.0000        0.0000       0.000002       0.00000
  35     180.6        0.0000        0.0000        0.0000        0.0000       0.000000       0.00000
  34     202.8        0.0000        0.0000        0.0000        0.0000       0.000000       0.00000
  33     228.4        0.0000        0.0000        0.0000        0.0000       0.000000       0.00000
  32     252.2        0.0000        0.0000        0.0000        0.0000       0.000000       0.00000
  31     276.0        0.0000        0.0000        0.0000        0.0000       0.000000       0.00000
  30     299.8        0.0000        0.0000        0.0000        0.0000       0.000000       0.00000
  29     323.5        0.0000        0.0000        0.0000        0.0000       0.000000       0.00000
  28     347.3        0.0000        0.0000        0.0000        0.0000       0.000000       0.00000
  27     371.1        0.0000        0.0000        0.0000        0.0000       0.000000       0.00000
  26     394.9        0.0000        0.0000        0.0000        0.0000       0.000000       0.00000
  25     418.6        0.0000        0.0000        0.0000        0.0000       0.000000       0.00000
  24     442.4        0.0000        0.0000        0.0000        0.0000       0.000000       0.00000
  23     466.2        0.0000        0.0000        0.0000        0.0000       0.000000       0.00000
  22     489.9        0.0000        0.0000        0.0000        0.0000       0.000000       0.00000
  21     513.7        0.0000        0.0000        0.0000        0.0000       0.000000       0.00000
  20     537.5        0.0000        0.0000        0.0000        0.0000       0.000000       0.00000
  19     561.3        0.0000        0.0000        0.0000        0.0000       0.000000       0.00000
  18     585.0        0.0000        0.0000        0.0000        0.0000       0.000000       0.00000
  17     608.8        0.0000        0.0000        0.0000        0.0000       0.000000       0.00000
  16     632.6        0.0000        0.0000        0.0000        0.0000       0.000000       0.00000
  15     656.4        0.0000        0.0000        0.0000        0.0000       0.000000       0.00000
  14     680.1        0.0000        0.0000        0.0000        0.0000       0.000000       0.00000
  13     703.9        0.0000        0.0000        0.0000        0.0000       0.000000       0.00000
  12     727.7        0.0000        0.0000        0.0000        0.0000       0.000000       0.00000
  11     751.5        0.0000        0.0000        0.0000        0.0000       0.000000       0.00000
  10     775.2        0.0000        0.0000        0.0000        0.0000       0.000000       0.00000
   9     799.0        0.0000        0.0000        0.0000        0.0000       0.000000       0.00000
   8     822.8        0.0000        0.0000        0.0000        0.0000       0.000000       0.00000
   7     846.6        0.0000        0.0000        0.0000        0.0000       0.000000       0.00000
   6     870.4        0.0000        0.0000        0.0000        0.0000       0.000000       0.00000
   5     894.1        0.0000        0.0000        0.0000        0.0000       0.000000       0.00000
   4     917.9        0.0000        0.0000        0.0000        0.0000       0.000000       0.00000
   3     941.7        0.0000        0.0000        0.0000        0.0000       0.000000       0.00000
   2     965.5        0.0000        0.0000        0.0000        0.0000       0.000000       0.00000
   1     989.2        0.0000        0.0000        0.0000        0.0000       0.000000       0.00000
   0    1013.0        0.0000        0.0000        0.0000        0.0000       0.000000       0.00000



 Wavenumbers:   820. -  2600. cm-1, ATM      1
 LEVEL PRESSURE   UPWARD FLUX   DIFDOWN FLUX  DIRDOWN FLUX  DOWNWARD FLUX   NET FLUX    HEATING RATE
          mb          W/m2          W/m2          W/m2        W/m2          W/m2       degree/day
  60   .000300        0.0540        0.0000       10.1320       10.1320      10.077964       0.00000
  59    0.1000        0.0540        0.0000       10.1209       10.1209      10.066841       0.94146
  58    0.1403        0.0540        0.0000       10.1186       10.1186      10.064539       0.48206
  57    0.1968        0.0540        0.0000       10.1154       10.1154      10.061404       0.46835
  56    0.2760        0.0540        0.0000       10.1114       10.1114      10.057374       0.42936
  55    0.3871        0.0540        0.0000       10.1063       10.1063      10.052312       0.38455
  54    0.5430        0.0540        0.0000       10.1000       10.1000      10.045947       0.34451
  53    0.7617        0.0540        0.0000       10.0914       10.0914      10.037405       0.32963
  52     1.069        0.0540        0.0000       10.0795       10.0795      10.025453       0.32875
  51     1.499        0.0540        0.0000       10.0632       10.0632      10.009141       0.31992
  50     2.102        0.0540        0.0000       10.0411       10.0411       9.987069       0.30860
  49     2.949        0.0540        0.0000       10.0106       10.0106       9.956522       0.30450
  48     4.137        0.0540        0.0000        9.9691        9.9691       9.915040       0.29477
  47     5.803        0.0540        0.0000        9.9145        9.9145       9.860459       0.27650
  46     8.139        0.0540        0.0000        9.8439        9.8439       9.789919       0.25476
  45     11.42        0.0540        0.0000        9.7529        9.7529       9.698841       0.23449
  44     16.01        0.0540        0.0000        9.6419        9.6419       9.587899       0.20364
  43     22.46        0.0540        0.0000        9.5271        9.5271       9.473028       0.15031
  42     31.51        0.0540        0.0000        9.4314        9.4314       9.377406       0.08920
  41     44.20        0.0540        0.0000        9.3547        9.3547       9.300646       0.05105
  40     62.00        0.0540        0.0000        9.2691        9.2691       9.215054       0.04058
  39     85.78        0.0540        0.0000        9.1603        9.1603       9.106245       0.03862
  38     109.5        0.0540        0.0000        9.0522        9.0522       8.998160       0.03837
  37     133.1        0.0540        0.0000        8.9501        8.9501       8.896035       0.03667
  36     156.8        0.0540        0.0000        8.8531        8.8532       8.799114       0.03437
  35     180.6        0.0540        0.0000        8.7452        8.7452       8.691138       0.03833
  34     202.8        0.0540        0.0000        8.6160        8.6160       8.561939       0.04905
  33     228.4        0.0540        0.0000        8.4485        8.4486       8.394514       0.05524
  32     252.2        0.0541        0.0000        8.2373        8.2373       8.183285       0.07498
  31     276.0        0.0541        0.0000        8.0024        8.0024       7.948349       0.08339
  30     299.8        0.0541        0.0000        7.7487        7.7488       7.694689       0.09004
  29     323.5        0.0541        0.0000        7.5042        7.5043       7.450167       0.08680
  28     347.3        0.0541        0.0000        7.2561        7.2561       7.201992       0.08809
  27     371.1        0.0542        0.0000        6.9891        6.9892       6.934977       0.09478
  26     394.9        0.0542        0.0000        6.6916        6.6917       6.637414       0.10562
  25     418.6        0.0543        0.0000        6.3849        6.3849       6.330607       0.10890
  24     442.4        0.0544        0.0000        6.0915        6.0916       6.037192       0.10415
  23     466.2        0.0545        0.0000        5.8374        5.8374       5.782907       0.09026
  22     489.9        0.0546        0.0000        5.6316        5.6316       5.577035       0.07308
  21     513.7        0.0547        0.0000        5.4665        5.4665       5.411782       0.05866
  20     537.5        0.0549        0.0000        5.3334        5.3334       5.278553       0.04729
  19     561.3        0.0551        0.0000        5.2181        5.2181       5.163058       0.04100
  18     585.0        0.0553        0.0000        5.1075        5.1075       5.052262       0.03933
  17     608.8        0.0555        0.0000        4.9971        4.9972       4.941628       0.03927
  16     632.6        0.0559        0.0000        4.8838        4.8839       4.827995       0.04034
  15     656.4        0.0562        0.0000        4.7636        4.7637       4.707453       0.04279
  14     680.1        0.0567        0.0000        4.6379        4.6379       4.581204       0.04481
  13     703.9        0.0572        0.0000        4.5081        4.5081       4.450890       0.04626
  12     727.7        0.0579        0.0000        4.3731        4.3731       4.315194       0.04817
  11     751.5        0.0588        0.0000        4.2312        4.2312       4.172409       0.05068
  10     775.2        0.0599        0.0000        4.0847        4.0847       4.024822       0.05239
   9     799.0        0.0614        0.0000        3.9340        3.9340       3.872634       0.05402
   8     822.8        0.0632        0.0000        3.7809        3.7809       3.717743       0.05498
   7     846.6        0.0652        0.0000        3.6364        3.6365       3.571236       0.05200
   6     870.4        0.0676        0.0000        3.4993        3.4994       3.431758       0.04951
   5     894.1        0.0703        0.0000        3.3665        3.3665       3.296247       0.04810
   4     917.9        0.0733        0.0000        3.2346        3.2347       3.161343       0.04789
   3     941.7        0.0770        0.0000        3.1022        3.1022       3.025219       0.04832
   2     965.5        0.0813        0.0000        2.9688        2.9688       2.887542       0.04887
   1     989.2        0.0865        0.0000        2.8346        2.8347       2.748173       0.04946
   0    1013.0        0.0929        0.0000        2.6997        2.6997       2.606856       0.05017

  Modules and versions used in this calculation:

       rrtmg_sw.1col.f90:  $Revision$                    rrtmg_sw_init.f90:  $Revision$        
     rrtmgsw_cldprop.f90:  $Revision$                  rrtmgsw_cldprmc.f90:  NOT USED          
     rrtmg_sw_reftra.f90:  $Revision$                  rrtmg_sw_spcvrt.f90:  NOT USED          
     rrtmg_sw_spcvmc.f90:  NOT USED                    rrtmgsw_setcoef.f90:  NOT USED          
     rrtmg_sw_taumol.f90:  $Revision$                  rrtmg_sw_vrtqdr.f90:  NOT USED          
                rrtatm.f:  NOT USED                             util_xxx.f:  NOT USED          
                 extra.f:  NOT USED                       rrtmg_sw_k_g.f90:  $Revision$        

