

 Wavenumbers:   820. - 50000. cm-1, ATM      1
 LEVEL PRESSURE   UPWARD FLUX   DIFDOWN FLUX  DIRDOWN FLUX  DOWNWARD FLUX   NET FLUX    HEATING RATE
          mb          W/m2          W/m2          W/m2        W/m2          W/m2       degree/day
  60   .000300       76.3882        0.0000      837.8224      837.8224     761.434231       0.00000
  59    0.1000       76.3815        0.0097      837.7165      837.7262     761.344729       7.57594
  58    0.1403       76.3790        0.0136      837.6603      837.6739     761.294940      10.42624
  57    0.1968       76.3755        0.0191      837.5668      837.5859     761.210438      12.62154
  56    0.2760       76.3708        0.0267      837.4145      837.4412     761.070353      14.92677
  55    0.3871       76.3645        0.0373      837.1743      837.2116     760.847141      16.95516
  54    0.5430       76.3561        0.0519      836.8019      836.8538     760.497715      18.91508
  53    0.7617       76.3452        0.0718      836.2141      836.2859     759.940636      21.49642
  52     1.069       76.3315        0.0990      835.3201      835.4190     759.087496      23.46731
  51     1.499       76.3155        0.1353      834.0843      834.2196     757.904127      23.20851
  50     2.102       76.2751        0.2248      816.7317      816.9565     740.681360     240.79763
  49     2.949       76.2513        0.3060      813.6861      813.9921     737.740837      29.31196
  48     4.137       76.2362        0.4058      811.1895      811.5953     735.359163      16.92429
  47     5.803       76.2265        0.5386      808.8836      809.4222     733.195682      10.95980
  46     8.139       76.2136        0.7205      806.6557      807.3763     731.162605       7.34259
  45     11.42       76.1831        0.9720      804.4150      805.3871     729.203965       5.04279
  44     16.01       76.1197        1.3201      802.0351      803.3551     727.235375       3.61338
  43     22.46       76.0027        1.8030      799.3844      801.1873     725.184596       2.68352
  42     31.51       75.7869        2.4732      796.3620      798.8352     723.048280       1.99289
  41     44.20       75.3946        3.4048      793.0144      796.4191     721.024511       1.34589
  40     62.00       74.7515        4.6865      789.1873      793.8738     719.122238       0.90190
  39     85.78       73.7657        6.3713      784.9909      791.3622     717.596527       0.54156
  38     109.5       72.6939        8.0527      781.2028      789.2554     716.561509       0.36739
  37     133.1       71.6452        9.6371      777.6970      787.3342     715.688912       0.31336
  36     156.8       70.6163       11.1472      774.3204      785.4676     714.851308       0.29702
  35     180.6       69.5103       12.7211      770.7410      783.4621     713.951750       0.31936
  34     202.8       68.4331       14.2075      767.2570      781.4645     713.031414       0.34943
  33     228.4       67.3283       15.6938      763.7841      779.4779     712.149593       0.29095
  32     252.2       66.2172       17.1541      760.1714      777.3255     711.108327       0.36961
  31     276.0       65.1157       18.5688      756.4230      774.9918     709.876138       0.43738
  30     299.8       64.0030       19.9663      752.4152      772.3815     708.378531       0.53159
  29     323.5       62.8871       21.3382      748.1235      769.4618     706.574660       0.64030
  28     347.3       61.7806       22.6703      743.5681      766.2384     704.457830       0.75139
  27     371.1       60.6876       23.9588      738.7632      762.7220     702.034370       0.86023
  26     394.9       59.5793       25.2388      733.5836      758.8224     699.243077       0.99079
  25     418.6       58.4739       26.4892      728.1208      754.6100     696.136078       1.10286
  24     442.4       57.3699       27.7125      722.3957      750.1081     692.738281       1.20608
  23     466.2       56.2636       28.9131      716.4381      745.3512     689.087620       1.29583
  22     489.9       55.1706       30.0754      710.3656      740.4410     685.270435       1.35494
  21     513.7       54.0722       31.2197      704.1078      735.3276     681.255338       1.42519
  20     537.5       52.9855       32.3292      697.7954      730.1246     677.139070       1.46111
  19     561.3       51.9090       33.4066      691.4540      724.8606     672.951578       1.48639
  18     585.0       50.8194       34.4753      684.9799      719.4552     668.635788       1.53193
  17     608.8       49.7427       35.5106      678.5807      714.0912     664.348555       1.52179
  16     632.6       48.6785       36.5137      672.3025      708.8162     660.137695       1.49468
  15     656.4       47.6052       37.5055      666.0265      703.5320     655.926736       1.49472
  14     680.1       46.5446       38.4666      659.8899      698.3565     651.811890       1.46060
  13     703.9       45.4966       39.3980      653.9095      693.3075     647.810965       1.42016
  12     727.7       44.4453       40.3142      648.0193      688.3335     643.888209       1.39242
  11     751.5       43.3912       41.2150      642.2466      683.4617     640.070444       1.35515
  10     775.2       42.3472       42.0898      636.6667      678.7565     636.409248       1.29957
   9     799.0       41.3138       42.9390      631.2570      674.1959     632.882096       1.25199
   8     822.8       40.2748       43.7764      625.8970      669.6733     629.398486       1.23654
   7     846.6       39.2425       44.5927      620.6222      665.2149     625.972326       1.21615
   6     870.4       38.2232       45.3839      615.4363      660.8203     622.597104       1.19806
   5     894.1       37.2174       46.1510      610.3267      656.4777     619.260338       1.18441
   4     917.9       36.2153       46.9023      605.2301      652.1324     615.917100       1.18671
   3     941.7       35.2216       47.6356      600.1637      647.7993     612.577740       1.18534
   2     965.5       34.2453       48.3457      595.1687      643.5144     609.269104       1.17443
   1     989.2       33.2880       49.0332      590.2435      639.2767     605.988633       1.16419
   0    1013.0       32.3524       49.6988      585.3902      635.0890     602.736600       1.15458



 Wavenumbers:  2600. -  3250. cm-1, ATM      1
 LEVEL PRESSURE   UPWARD FLUX   DIFDOWN FLUX  DIRDOWN FLUX  DOWNWARD FLUX   NET FLUX    HEATING RATE
          mb          W/m2          W/m2          W/m2        W/m2          W/m2       degree/day
  60   .000300        0.1533        0.0000        7.3841        7.3841       7.230727       0.00000
  59    0.1000        0.1533        0.0000        7.3840        7.3840       7.230655       0.00613
  58    0.1403        0.1533        0.0000        7.3840        7.3840       7.230626       0.00614
  57    0.1968        0.1533        0.0000        7.3839        7.3839       7.230584       0.00616
  56    0.2760        0.1533        0.0000        7.3839        7.3839       7.230527       0.00613
  55    0.3871        0.1533        0.0000        7.3838        7.3838       7.230442       0.00641
  54    0.5430        0.1533        0.0000        7.3837        7.3837       7.230317       0.00678
  53    0.7617        0.1533        0.0000        7.3835        7.3835       7.230120       0.00761
  52     1.069        0.1533        0.0000        7.3831        7.3831       7.229790       0.00908
  51     1.499        0.1533        0.0000        7.3825        7.3825       7.229181       0.01193
  50     2.102        0.1533        0.0000        7.3814        7.3814       7.228093       0.01522
  49     2.949        0.1533        0.0000        7.3795        7.3795       7.226207       0.01880
  48     4.137        0.1533        0.0000        7.3765        7.3765       7.223193       0.02142
  47     5.803        0.1533        0.0000        7.3721        7.3721       7.218762       0.02245
  46     8.139        0.1533        0.0000        7.3661        7.3661       7.212755       0.02169
  45     11.42        0.1533        0.0000        7.3586        7.3586       7.205250       0.01932
  44     16.01        0.1533        0.0000        7.3500        7.3500       7.196676       0.01574
  43     22.46        0.1533        0.0000        7.3407        7.3407       7.187364       0.01219
  42     31.51        0.1533        0.0000        7.3297        7.3297       7.176406       0.01022
  41     44.20        0.1533        0.0000        7.3134        7.3134       7.160068       0.01087
  40     62.00        0.1533        0.0000        7.2860        7.2860       7.132686       0.01298
  39     85.78        0.1533        0.0000        7.2438        7.2439       7.090539       0.01496
  38     109.5        0.1533        0.0000        7.1973        7.1974       7.044015       0.01651
  37     133.1        0.1534        0.0000        7.1517        7.1518       6.998397       0.01638
  36     156.8        0.1534        0.0001        7.1066        7.1067       6.953280       0.01600
  35     180.6        0.1534        0.0001        7.0579        7.0580       6.904589       0.01729
  34     202.8        0.1535        0.0001        7.0101        7.0101       6.856669       0.01819
  33     228.4        0.1535        0.0001        6.9659        6.9660       6.812483       0.01458
  32     252.2        0.1536        0.0001        6.9210        6.9211       6.767502       0.01597
  31     276.0        0.1537        0.0001        6.8753        6.8754       6.721763       0.01624
  30     299.8        0.1538        0.0001        6.8277        6.8278       6.673975       0.01696
  29     323.5        0.1539        0.0001        6.7771        6.7773       6.623336       0.01797
  28     347.3        0.1541        0.0001        6.7234        6.7235       6.569426       0.01914
  27     371.1        0.1543        0.0001        6.6650        6.6651       6.510825       0.02080
  26     394.9        0.1545        0.0001        6.5992        6.5993       6.444819       0.02343
  25     418.6        0.1548        0.0001        6.5252        6.5253       6.370550       0.02636
  24     442.4        0.1551        0.0001        6.4422        6.4424       6.287238       0.02957
  23     466.2        0.1555        0.0002        6.3489        6.3491       6.193596       0.03324
  22     489.9        0.1559        0.0002        6.2464        6.2466       6.090668       0.03653
  21     513.7        0.1565        0.0002        6.1344        6.1345       5.978095       0.03996
  20     537.5        0.1570        0.0002        6.0151        6.0152       5.858169       0.04257
  19     561.3        0.1577        0.0002        5.8895        5.8897       5.731952       0.04480
  18     585.0        0.1585        0.0002        5.7565        5.7567       5.598165       0.04749
  17     608.8        0.1595        0.0002        5.6220        5.6222       5.462721       0.04808
  16     632.6        0.1605        0.0002        5.4889        5.4891       5.328601       0.04761
  15     656.4        0.1616        0.0002        5.3570        5.3572       5.195557       0.04722
  14     680.1        0.1629        0.0002        5.2295        5.2297       5.066747       0.04572
  13     703.9        0.1644        0.0002        5.1068        5.1069       4.942568       0.04408
  12     727.7        0.1659        0.0002        4.9873        4.9875       4.821543       0.04296
  11     751.5        0.1677        0.0002        4.8717        4.8719       4.704194       0.04165
  10     775.2        0.1696        0.0002        4.7611        4.7613       4.591673       0.03994
   9     799.0        0.1717        0.0002        4.6543        4.6545       4.482796       0.03865
   8     822.8        0.1740        0.0002        4.5486        4.5488       4.374856       0.03831
   7     846.6        0.1765        0.0002        4.4446        4.4448       4.268266       0.03784
   6     870.4        0.1793        0.0002        4.3421        4.3422       4.162940       0.03739
   5     894.1        0.1824        0.0002        4.2405        4.2407       4.058229       0.03717
   4     917.9        0.1860        0.0002        4.1387        4.1389       3.952848       0.03741
   3     941.7        0.1901        0.0002        4.0374        4.0376       3.847517       0.03739
   2     965.5        0.1946        0.0002        3.9375        3.9377       3.743077       0.03707
   1     989.2        0.1999        0.0002        3.8392        3.8394       3.639571       0.03673
   0    1013.0        0.2059        0.0002        3.7429        3.7430       3.537165       0.03636



 Wavenumbers:  3250. -  4000. cm-1, ATM      1
 LEVEL PRESSURE   UPWARD FLUX   DIFDOWN FLUX  DIRDOWN FLUX  DOWNWARD FLUX   NET FLUX    HEATING RATE
          mb          W/m2          W/m2          W/m2        W/m2          W/m2       degree/day
  60   .000300        0.0005        0.0000       12.4485       12.4485      12.447973       0.00000
  59    0.1000        0.0005        0.0000       12.4299       12.4299      12.429389       1.57301
  58    0.1403        0.0005        0.0000       12.4265       12.4265      12.425994       0.71112
  57    0.1968        0.0005        0.0000       12.4224       12.4224      12.421894       0.61236
  56    0.2760        0.0005        0.0000       12.4177       12.4177      12.417204       0.49971
  55    0.3871        0.0005        0.0000       12.4123       12.4123      12.411858       0.40611
  54    0.5430        0.0005        0.0000       12.4060       12.4061      12.405563       0.34076
  53    0.7617        0.0005        0.0000       12.3980       12.3980      12.397532       0.30990
  52     1.069        0.0005        0.0000       12.3876       12.3876      12.387160       0.28528
  51     1.499        0.0005        0.0000       12.3750       12.3750      12.374467       0.24894
  50     2.102        0.0005        0.0000        9.5495        9.5495       9.549003      39.50382
  49     2.949        0.0005        0.0000        9.0652        9.0652       9.064685       4.82781
  48     4.137        0.0005        0.0000        8.7982        8.7982       8.797729       1.89701
  47     5.803        0.0005        0.0000        8.6242        8.6242       8.623669       0.88176
  46     8.139        0.0005        0.0000        8.5018        8.5018       8.501259       0.44209
  45     11.42        0.0005        0.0000        8.4108        8.4108       8.410286       0.23422
  44     16.01        0.0005        0.0000        8.3389        8.3389       8.338409       0.13193
  43     22.46        0.0005        0.0000        8.2764        8.2765       8.275962       0.08171
  42     31.51        0.0005        0.0000        8.1924        8.1924       8.191940       0.07838
  41     44.20        0.0005        0.0000        8.1143        8.1143       8.113840       0.05194
  40     62.00        0.0005        0.0001        8.0487        8.0487       8.048252       0.03110
  39     85.78        0.0004        0.0001        8.0059        8.0060       8.005562       0.01515
  38     109.5        0.0004        0.0001        7.9704        7.9705       7.970090       0.01259
  37     133.1        0.0004        0.0001        7.9234        7.9235       7.923083       0.01688
  36     156.8        0.0004        0.0001        7.8433        7.8435       7.843106       0.02836
  35     180.6        0.0004        0.0002        7.7180        7.7182       7.717819       0.04448
  34     202.8        0.0003        0.0002        7.5541        7.5543       7.553978       0.06221
  33     228.4        0.0003        0.0002        7.3950        7.3952       7.394870       0.05250
  32     252.2        0.0003        0.0002        7.1910        7.1912       7.190881       0.07241
  31     276.0        0.0003        0.0002        6.9416        6.9418       6.941534       0.08851
  30     299.8        0.0003        0.0002        6.6412        6.6414       6.641127       0.10663
  29     323.5        0.0002        0.0002        6.2947        6.2950       6.294713       0.12296
  28     347.3        0.0002        0.0002        5.9150        5.9152       5.915008       0.13478
  27     371.1        0.0002        0.0002        5.5196        5.5198       5.519605       0.14035
  26     394.9        0.0002        0.0002        5.1159        5.1161       5.115916       0.14329
  25     418.6        0.0002        0.0002        4.7220        4.7222       4.721998       0.13982
  24     442.4        0.0002        0.0002        4.3449        4.3452       4.344966       0.13383
  23     466.2        0.0002        0.0002        3.9925        3.9928       3.992566       0.12509
  22     489.9        0.0002        0.0002        3.6652        3.6654       3.665220       0.11619
  21     513.7        0.0002        0.0002        3.3542        3.3544       3.354197       0.11040
  20     537.5        0.0002        0.0002        3.0627        3.0628       3.062669       0.10348
  19     561.3        0.0002        0.0002        2.7894        2.7895       2.789371       0.09701
  18     585.0        0.0002        0.0002        2.5286        2.5288       2.528617       0.09256
  17     608.8        0.0002        0.0002        2.2874        2.2875       2.287351       0.08564
  16     632.6        0.0002        0.0001        2.0648        2.0649       2.064730       0.07902
  15     656.4        0.0002        0.0001        1.8539        1.8541       1.853898       0.07484
  14     680.1        0.0002        0.0001        1.6584        1.6585       1.658325       0.06942
  13     703.9        0.0002        0.0001        1.4781        1.4782       1.478044       0.06399
  12     727.7        0.0002        0.0001        1.3121        1.3122       1.311991       0.05894
  11     751.5        0.0002        0.0001        1.1614        1.1615       1.161276       0.05350
  10     775.2        0.0003        0.0001        1.0276        1.0276       1.027392       0.04752
   9     799.0        0.0003        0.0001        0.9084        0.9085       0.908205       0.04231
   8     822.8        0.0003        0.0001        0.8002        0.8002       0.799929       0.03843
   7     846.6        0.0004        0.0001        0.7020        0.7020       0.701658       0.03488
   6     870.4        0.0004        0.0001        0.6127        0.6127       0.612298       0.03172
   5     894.1        0.0005        0.0000        0.5309        0.5310       0.530491       0.02904
   4     917.9        0.0006        0.0000        0.4554        0.4554       0.454813       0.02686
   3     941.7        0.0007        0.0000        0.3862        0.3862       0.385530       0.02459
   2     965.5        0.0009        0.0000        0.3238        0.3238       0.322958       0.02221
   1     989.2        0.0011        0.0000        0.2681        0.2681       0.267007       0.01986
   0    1013.0        0.0014        0.0000        0.2189        0.2189       0.217483       0.01758



 Wavenumbers:  4000. -  4650. cm-1, ATM      1
 LEVEL PRESSURE   UPWARD FLUX   DIFDOWN FLUX  DIRDOWN FLUX  DOWNWARD FLUX   NET FLUX    HEATING RATE
          mb          W/m2          W/m2          W/m2        W/m2          W/m2       degree/day
  60   .000300        0.2619        0.0000       14.6183       14.6183      14.356316       0.00000
  59    0.1000        0.2619        0.0000       14.6182       14.6182      14.356307       0.00077
  58    0.1403        0.2619        0.0000       14.6182       14.6182      14.356303       0.00077
  57    0.1968        0.2619        0.0000       14.6182       14.6182      14.356298       0.00077
  56    0.2760        0.2619        0.0000       14.6182       14.6182      14.356291       0.00077
  55    0.3871        0.2619        0.0000       14.6182       14.6182      14.356280       0.00080
  54    0.5430        0.2619        0.0000       14.6182       14.6182      14.356265       0.00085
  53    0.7617        0.2619        0.0000       14.6182       14.6182      14.356240       0.00096
  52     1.069        0.2619        0.0000       14.6181       14.6181      14.356198       0.00115
  51     1.499        0.2619        0.0000       14.6181       14.6181      14.356121       0.00152
  50     2.102        0.2619        0.0000       14.6179       14.6179      14.355979       0.00198
  49     2.949        0.2619        0.0000       14.6176       14.6177      14.355725       0.00253
  48     4.137        0.2619        0.0000       14.6172       14.6172      14.355294       0.00306
  47     5.803        0.2619        0.0000       14.6165       14.6165      14.354600       0.00352
  46     8.139        0.2619        0.0000       14.6154       14.6154      14.353513       0.00392
  45     11.42        0.2619        0.0000       14.6137       14.6137      14.351839       0.00431
  44     16.01        0.2619        0.0001       14.6111       14.6112      14.349301       0.00466
  43     22.46        0.2619        0.0001       14.6073       14.6074      14.345519       0.00495
  42     31.51        0.2618        0.0001       14.6016       14.6017      14.339863       0.00528
  41     44.20        0.2618        0.0002       14.5926       14.5927      14.330937       0.00594
  40     62.00        0.2617        0.0002       14.5786       14.5788      14.317089       0.00657
  39     85.78        0.2617        0.0003       14.5589       14.5592      14.297571       0.00693
  38     109.5        0.2616        0.0004       14.5379       14.5383      14.276706       0.00741
  37     133.1        0.2616        0.0005       14.5171       14.5176      14.256027       0.00743
  36     156.8        0.2615        0.0006       14.4954       14.4959      14.234407       0.00767
  35     180.6        0.2615        0.0006       14.4699       14.4706      14.209078       0.00899
  34     202.8        0.2615        0.0007       14.4425       14.4432      14.181698       0.01040
  33     228.4        0.2615        0.0008       14.4146       14.4154      14.153963       0.00915
  32     252.2        0.2615        0.0009       14.3834       14.3843      14.122779       0.01107
  31     276.0        0.2615        0.0010       14.3487       14.3497      14.088187       0.01228
  30     299.8        0.2616        0.0010       14.3097       14.3107      14.049174       0.01385
  29     323.5        0.2616        0.0011       14.2658       14.2669      14.005258       0.01559
  28     347.3        0.2618        0.0012       14.2162       14.2174      13.955684       0.01760
  27     371.1        0.2619        0.0013       14.1598       14.1610      13.899153       0.02007
  26     394.9        0.2620        0.0014       14.0935       14.0948      13.832788       0.02356
  25     418.6        0.2622        0.0014       14.0175       14.0189      13.756716       0.02700
  24     442.4        0.2624        0.0015       13.9314       13.9329      13.670425       0.03063
  23     466.2        0.2627        0.0016       13.8356       13.8372      13.574506       0.03405
  22     489.9        0.2630        0.0016       13.7327       13.7343      13.471365       0.03661
  21     513.7        0.2633        0.0017       13.6226       13.6243      13.361009       0.03917
  20     537.5        0.2636        0.0018       13.5091       13.5109      13.247238       0.04038
  19     561.3        0.2640        0.0018       13.3938       13.3957      13.131619       0.04104
  18     585.0        0.2645        0.0019       13.2753       13.2772      13.012701       0.04221
  17     608.8        0.2651        0.0019       13.1573       13.1593      12.894222       0.04206
  16     632.6        0.2657        0.0020       13.0398       13.0418      12.776084       0.04193
  15     656.4        0.2664        0.0021       12.9186       12.9206      12.654250       0.04325
  14     680.1        0.2672        0.0021       12.7948       12.7969      12.529762       0.04419
  13     703.9        0.2680        0.0022       12.6676       12.6698      12.401779       0.04543
  12     727.7        0.2690        0.0022       12.5357       12.5379      12.268916       0.04716
  11     751.5        0.2700        0.0022       12.4002       12.4024      12.132386       0.04846
  10     775.2        0.2712        0.0023       12.2638       12.2661      11.994873       0.04881
   9     799.0        0.2725        0.0023       12.1272       12.1295      11.857035       0.04893
   8     822.8        0.2739        0.0024       11.9878       11.9902      11.716287       0.04996
   7     846.6        0.2754        0.0024       11.8475       11.8499      11.574476       0.05034
   6     870.4        0.2772        0.0024       11.7069       11.7094      11.432210       0.05050
   5     894.1        0.2791        0.0025       11.5666       11.5690      11.289939       0.05050
   4     917.9        0.2813        0.0025       11.4257       11.4282      11.146881       0.05078
   3     941.7        0.2838        0.0025       11.2855       11.2881      11.004246       0.05063
   2     965.5        0.2867        0.0026       11.1478       11.1504      10.863674       0.04990
   1     989.2        0.2900        0.0026       11.0132       11.0158      10.725731       0.04895
   0    1013.0        0.2940        0.0026       10.8818       10.8845      10.590500       0.04801



 Wavenumbers:  4650. -  5150. cm-1, ATM      1
 LEVEL PRESSURE   UPWARD FLUX   DIFDOWN FLUX  DIRDOWN FLUX  DOWNWARD FLUX   NET FLUX    HEATING RATE
          mb          W/m2          W/m2          W/m2        W/m2          W/m2       degree/day
  60   .000300        0.2006        0.0000       13.8369       13.8369      13.636296       0.00000
  59    0.1000        0.2006        0.0000       13.8347       13.8347      13.634182       0.17890
  58    0.1403        0.2006        0.0000       13.8339       13.8339      13.633345       0.17526
  57    0.1968        0.2006        0.0000       13.8327       13.8327      13.632182       0.17371
  56    0.2760        0.2006        0.0000       13.8312       13.8312      13.630597       0.16899
  55    0.3871        0.2006        0.0000       13.8290       13.8290      13.628421       0.16522
  54    0.5430        0.2006        0.0000       13.8261       13.8261      13.625492       0.15856
  53    0.7617        0.2006        0.0000       13.8222       13.8222      13.621597       0.15032
  52     1.069        0.2006        0.0000       13.8170       13.8170      13.616455       0.14143
  51     1.499        0.2006        0.0000       13.8105       13.8105      13.609986       0.12688
  50     2.102        0.2006        0.0000       13.8027       13.8027      13.602132       0.10980
  49     2.949        0.2005        0.0000       13.7934       13.7934      13.592855       0.09247
  48     4.137        0.2005        0.0000       13.7832       13.7832      13.582636       0.07262
  47     5.803        0.2005        0.0000       13.7725       13.7725      13.572014       0.05381
  46     8.139        0.2005        0.0000       13.7617       13.7617      13.561216       0.03900
  45     11.42        0.2005        0.0001       13.7499       13.7500      13.549482       0.03021
  44     16.01        0.2005        0.0001       13.7349       13.7350      13.534505       0.02749
  43     22.46        0.2005        0.0001       13.7124       13.7126      13.512099       0.02932
  42     31.51        0.2004        0.0002       13.6762       13.6763      13.475935       0.03374
  41     44.20        0.2004        0.0002       13.6172       13.6174      13.417085       0.03914
  40     62.00        0.2003        0.0003       13.5251       13.5254      13.325137       0.04359
  39     85.78        0.2002        0.0005       13.3954       13.3959      13.195652       0.04596
  38     109.5        0.2001        0.0006       13.2663       13.2669      13.066744       0.04576
  37     133.1        0.2001        0.0007       13.1502       13.1509      12.950814       0.04163
  36     156.8        0.2001        0.0008       13.0460       13.0468      12.846745       0.03690
  35     180.6        0.2000        0.0009       12.9437       12.9447      12.744650       0.03625
  34     202.8        0.2000        0.0011       12.8516       12.8527      12.652642       0.03493
  33     228.4        0.2000        0.0012       12.7632       12.7643      12.564290       0.02915
  32     252.2        0.2001        0.0013       12.6768       12.6780      12.477951       0.03065
  31     276.0        0.2001        0.0014       12.5915       12.5929      12.392709       0.03026
  30     299.8        0.2002        0.0015       12.5033       12.5048      12.304598       0.03128
  29     323.5        0.2004        0.0016       12.4111       12.4127      12.212321       0.03275
  28     347.3        0.2005        0.0017       12.3150       12.3167      12.116140       0.03414
  27     371.1        0.2007        0.0018       12.2150       12.2168      12.016036       0.03553
  26     394.9        0.2010        0.0019       12.1073       12.1092      11.908267       0.03825
  25     418.6        0.2013        0.0020       11.9930       11.9950      11.793687       0.04067
  24     442.4        0.2016        0.0021       11.8718       11.8739      11.672299       0.04309
  23     466.2        0.2020        0.0022       11.7431       11.7453      11.543244       0.04581
  22     489.9        0.2025        0.0023       11.6085       11.6107      11.408262       0.04791
  21     513.7        0.2030        0.0023       11.4660       11.4684      11.265369       0.05072
  20     537.5        0.2036        0.0024       11.3175       11.3199      11.116328       0.05290
  19     561.3        0.2043        0.0025       11.1640       11.1665      10.962201       0.05471
  18     585.0        0.2050        0.0025       11.0025       11.0051      10.800059       0.05755
  17     608.8        0.2059        0.0026       10.8384       10.8410      10.635102       0.05855
  16     632.6        0.2068        0.0027       10.6726       10.6752      10.468393       0.05917
  15     656.4        0.2079        0.0027       10.5032       10.5059      10.297997       0.06048
  14     680.1        0.2091        0.0028       10.3349       10.3377      10.128635       0.06012
  13     703.9        0.2103        0.0028       10.1688       10.1716       9.961276       0.05941
  12     727.7        0.2117        0.0029       10.0035       10.0064       9.794652       0.05914
  11     751.5        0.2133        0.0029        9.8408        9.8437       9.630376       0.05831
  10     775.2        0.2150        0.0029        9.6832        9.6861       9.471194       0.05650
   9     799.0        0.2167        0.0030        9.5308        9.5337       9.316999       0.05473
   8     822.8        0.2187        0.0030        9.3804        9.3834       9.164667       0.05407
   7     846.6        0.2209        0.0031        9.2333        9.2364       9.015484       0.05295
   6     870.4        0.2232        0.0031        9.0902        9.0933       8.870061       0.05162
   5     894.1        0.2258        0.0031        8.9509        8.9540       8.728205       0.05035
   4     917.9        0.2286        0.0032        8.8135        8.8167       8.588092       0.04973
   3     941.7        0.2317        0.0032        8.6786        8.6818       8.450032       0.04901
   2     965.5        0.2352        0.0032        8.5468        8.5500       8.314853       0.04798
   1     989.2        0.2389        0.0032        8.4180        8.4212       8.182266       0.04705
   0    1013.0        0.2431        0.0033        8.2918        8.2951       8.051950       0.04627



 Wavenumbers:  5150. -  6150. cm-1, ATM      1
 LEVEL PRESSURE   UPWARD FLUX   DIFDOWN FLUX  DIRDOWN FLUX  DOWNWARD FLUX   NET FLUX    HEATING RATE
          mb          W/m2          W/m2          W/m2        W/m2          W/m2       degree/day
  60   .000300        0.5357        0.0000       34.6891       34.6891      34.153413       0.00000
  59    0.1000        0.5357        0.0000       34.6891       34.6891      34.153411       0.00017
  58    0.1403        0.5357        0.0000       34.6891       34.6891      34.153411       0.00017
  57    0.1968        0.5357        0.0000       34.6891       34.6891      34.153409       0.00017
  56    0.2760        0.5357        0.0000       34.6891       34.6891      34.153408       0.00017
  55    0.3871        0.5357        0.0000       34.6890       34.6891      34.153405       0.00018
  54    0.5430        0.5356        0.0000       34.6890       34.6890      34.153402       0.00019
  53    0.7617        0.5356        0.0000       34.6890       34.6890      34.153396       0.00021
  52     1.069        0.5356        0.0000       34.6890       34.6890      34.153387       0.00026
  51     1.499        0.5356        0.0000       34.6890       34.6890      34.153370       0.00034
  50     2.102        0.5358        0.0001       32.1492       32.1492      31.613463      35.51134
  49     2.949        0.5359        0.0001       31.8409       31.8410      31.305133       3.07351
  48     4.137        0.5359        0.0001       31.6686       31.6687      31.132787       1.22470
  47     5.803        0.5359        0.0002       31.5560       31.5561      31.020227       0.57021
  46     8.139        0.5359        0.0002       31.4782       31.4784      30.942473       0.28081
  45     11.42        0.5359        0.0003       31.4228       31.4231      30.887207       0.14229
  44     16.01        0.5358        0.0004       31.3828       31.3831      30.847341       0.07318
  43     22.46        0.5357        0.0005       31.3535       31.3541      30.818375       0.03790
  42     31.51        0.5355        0.0007       31.3186       31.3193      30.783773       0.03228
  41     44.20        0.5353        0.0010       31.2908       31.2918      30.756527       0.01812
  40     62.00        0.5350        0.0014       31.2723       31.2738      30.738806       0.00840
  39     85.78        0.5345        0.0020       31.2606       31.2626      30.728063       0.00381
  38     109.5        0.5341        0.0025       31.2521       31.2547      30.720570       0.00266
  37     133.1        0.5337        0.0030       31.2418       31.2448      30.711164       0.00338
  36     156.8        0.5333        0.0036       31.2248       31.2283      30.695057       0.00571
  35     180.6        0.5328        0.0041       31.1934       31.1975      30.664694       0.01078
  34     202.8        0.5324        0.0046       31.1430       31.1476      30.615139       0.01881
  33     228.4        0.5320        0.0051       31.0894       31.0945      30.562468       0.01738
  32     252.2        0.5316        0.0057       31.0031       31.0088      30.477133       0.03029
  31     276.0        0.5312        0.0062       30.8729       30.8790      30.347800       0.04591
  30     299.8        0.5309        0.0066       30.6810       30.6877      30.156834       0.06778
  29     323.5        0.5305        0.0071       30.4153       30.4224      29.891904       0.09404
  28     347.3        0.5302        0.0075       30.0685       30.0760      29.545861       0.12283
  27     371.1        0.5299        0.0079       29.6410       29.6489      29.119024       0.15151
  26     394.9        0.5296        0.0083       29.1261       29.1344      28.604754       0.18254
  25     418.6        0.5294        0.0086       28.5427       28.5513      28.021889       0.20689
  24     442.4        0.5292        0.0088       27.9060       27.9148      27.385623       0.22585
  23     466.2        0.5290        0.0091       27.2307       27.2398      26.710737       0.23956
  22     489.9        0.5289        0.0093       26.5400       26.5492      26.020309       0.24507
  21     513.7        0.5289        0.0095       25.8339       25.8434      25.314454       0.25055
  20     537.5        0.5290        0.0096       25.1366       25.1462      24.617219       0.24749
  19     561.3        0.5291        0.0098       24.4612       24.4710      23.941822       0.23974
  18     585.0        0.5294        0.0099       23.8059       23.8159      23.286471       0.23262
  17     608.8        0.5298        0.0101       23.1991       23.2092      22.679411       0.21548
  16     632.6        0.5303        0.0102       22.6457       22.6559      22.125612       0.19658
  15     656.4        0.5309        0.0104       22.1345       22.1449      21.614002       0.18160
  14     680.1        0.5317        0.0105       21.6751       21.6856      21.153921       0.16331
  13     703.9        0.5327        0.0107       21.2649       21.2756      20.742959       0.14587
  12     727.7        0.5338        0.0109       20.8956       20.9065      20.372656       0.13144
  11     751.5        0.5352        0.0111       20.5648       20.5759      20.040736       0.11782
  10     775.2        0.5367        0.0113       20.2720       20.2832      19.746550       0.10442
   9     799.0        0.5384        0.0115       20.0093       20.0207      19.482334       0.09379
   8     822.8        0.5404        0.0117       19.7658       19.7775      19.237049       0.08707
   7     846.6        0.5427        0.0119       19.5386       19.5505      19.007783       0.08138
   6     870.4        0.5454        0.0121       19.3240       19.3361      18.790712       0.07705
   5     894.1        0.5484        0.0123       19.1179       19.1302      18.581734       0.07418
   4     917.9        0.5520        0.0125       18.9152       18.9277      18.375668       0.07314
   3     941.7        0.5562        0.0126       18.7143       18.7269      18.170755       0.07274
   2     965.5        0.5611        0.0128       18.5161       18.5289      17.967835       0.07203
   1     989.2        0.5668        0.0130       18.3192       18.3322      17.765435       0.07183
   0    1013.0        0.5735        0.0132       18.1238       18.1370      17.563507       0.07169



 Wavenumbers:  6150. -  7700. cm-1, ATM      1
 LEVEL PRESSURE   UPWARD FLUX   DIFDOWN FLUX  DIRDOWN FLUX  DOWNWARD FLUX   NET FLUX    HEATING RATE
          mb          W/m2          W/m2          W/m2        W/m2          W/m2       degree/day
  60   .000300        0.9039        0.0000       64.1588       64.1588      63.254861       0.00000
  59    0.1000        0.9039        0.0000       64.1586       64.1586      63.254713       0.01251
  58    0.1403        0.9039        0.0000       64.1585       64.1585      63.254653       0.01252
  57    0.1968        0.9039        0.0000       64.1584       64.1585      63.254569       0.01258
  56    0.2760        0.9039        0.0000       64.1583       64.1583      63.254452       0.01248
  55    0.3871        0.9039        0.0000       64.1581       64.1582      63.254287       0.01253
  54    0.5430        0.9039        0.0001       64.1579       64.1579      63.254056       0.01248
  53    0.7617        0.9038        0.0001       64.1575       64.1576      63.253734       0.01244
  52     1.069        0.9038        0.0001       64.1570       64.1571      63.253279       0.01252
  51     1.499        0.9038        0.0002       64.1562       64.1564      63.252646       0.01241
  50     2.102        0.9041        0.0003       59.4897       59.4900      58.585860      65.24800
  49     2.949        0.9043        0.0004       59.1187       59.1190      58.214752       3.69931
  48     4.137        0.9043        0.0005       58.9117       58.9122      58.007898       1.46991
  47     5.803        0.9043        0.0006       58.7771       58.7777      57.873455       0.68106
  46     8.139        0.9041        0.0009       58.6844       58.6852      57.781106       0.33353
  45     11.42        0.9039        0.0012       58.6186       58.6198      57.715922       0.16782
  44     16.01        0.9035        0.0016       58.5714       58.5730      57.669553       0.08511
  43     22.46        0.9029        0.0023       58.5371       58.5394      57.636464       0.04330
  42     31.51        0.9021        0.0031       58.4963       58.4995      57.597412       0.03643
  41     44.20        0.9009        0.0044       58.4649       58.4693      57.568364       0.01932
  40     62.00        0.8992        0.0061       58.4443       58.4504      57.551167       0.00815
  39     85.78        0.8970        0.0084       58.4307       58.4391      57.542058       0.00323
  38     109.5        0.8947        0.0107       58.4202       58.4309      57.536206       0.00208
  37     133.1        0.8926        0.0130       58.4065       58.4194      57.526875       0.00335
  36     156.8        0.8904        0.0152       58.3828       58.3979      57.507479       0.00688
  35     180.6        0.8882        0.0175       58.3391       58.3566      57.468393       0.01388
  34     202.8        0.8861        0.0197       58.2671       58.2868      57.400704       0.02570
  33     228.4        0.8839        0.0220       58.1867       58.2086      57.324735       0.02507
  32     252.2        0.8818        0.0242       58.0582       58.0824      57.200650       0.04405
  31     276.0        0.8797        0.0264       57.8643       57.8906      57.010957       0.06733
  30     299.8        0.8776        0.0285       57.5784       57.6068      56.729229       0.10000
  29     323.5        0.8756        0.0305       57.1775       57.2080      56.332383       0.14086
  28     347.3        0.8737        0.0324       56.6450       56.6774      55.803721       0.18765
  27     371.1        0.8719        0.0341       55.9720       56.0061      55.134155       0.23767
  26     394.9        0.8702        0.0357       55.1356       55.1713      54.301064       0.29571
  25     418.6        0.8686        0.0371       54.1539       54.1910      53.322393       0.34739
  24     442.4        0.8672        0.0383       53.0449       53.0833      52.216105       0.39269
  23     466.2        0.8659        0.0394       51.8355       51.8749      51.008992       0.42848
  22     489.9        0.8648        0.0403       50.5717       50.6121      49.747263       0.44786
  21     513.7        0.8639        0.0411       49.2540       49.2951      48.431196       0.46715
  20     537.5        0.8633        0.0418       47.9267       47.9686      47.105214       0.47067
  19     561.3        0.8630        0.0424       46.6021       46.6445      45.781516       0.46986
  18     585.0        0.8630        0.0429       45.2704       45.3133      44.450301       0.47253
  17     608.8        0.8634        0.0434       43.9837       44.0271      43.163718       0.45668
  16     632.6        0.8641        0.0438       42.7608       42.8046      41.940520       0.43418
  15     656.4        0.8652        0.0441       41.5811       41.6253      40.760052       0.41902
  14     680.1        0.8668        0.0445       40.4694       40.5139      39.647168       0.39503
  13     703.9        0.8688        0.0448       39.4280       39.4729      38.604118       0.37024
  12     727.7        0.8713        0.0452       38.4429       38.4881      37.616838       0.35044
  11     751.5        0.8743        0.0456       37.5183       37.5639      36.689559       0.32915
  10     775.2        0.8779        0.0459       36.6622       36.7082      35.830264       0.30501
   9     799.0        0.8820        0.0463       35.8654       35.9116      35.029659       0.28418
   8     822.8        0.8868        0.0467       35.1038       35.1505      34.263671       0.27189
   7     846.6        0.8925        0.0470       34.3786       34.4257      33.533200       0.25929
   6     870.4        0.8990        0.0474       33.6868       33.7342      32.835178       0.24777
   5     894.1        0.9067        0.0477       33.0236       33.0713      32.164562       0.23804
   4     917.9        0.9158        0.0480       32.3802       32.4283      31.512425       0.23148
   3     941.7        0.9266        0.0483       31.7574       31.8057      30.879046       0.22482
   2     965.5        0.9394        0.0486       31.1610       31.2096      30.270210       0.21611
   1     989.2        0.9547        0.0489       30.5875       30.6364      29.681656       0.20887
   0    1013.0        0.9731        0.0491       30.0373       30.0864      29.113271       0.20180



 Wavenumbers:  7700. -  8050. cm-1, ATM      1
 LEVEL PRESSURE   UPWARD FLUX   DIFDOWN FLUX  DIRDOWN FLUX  DOWNWARD FLUX   NET FLUX    HEATING RATE
          mb          W/m2          W/m2          W/m2        W/m2          W/m2       degree/day
  60   .000300        0.4472        0.0000       15.1626       15.1626      14.715436       0.00000
  59    0.1000        0.4472        0.0000       15.1625       15.1625      14.715273       0.01384
  58    0.1403        0.4472        0.0000       15.1624       15.1624      14.715206       0.01392
  57    0.1968        0.4472        0.0000       15.1623       15.1623      14.715113       0.01399
  56    0.2760        0.4472        0.0000       15.1622       15.1622      14.714982       0.01388
  55    0.3871        0.4472        0.0000       15.1620       15.1620      14.714799       0.01394
  54    0.5430        0.4472        0.0000       15.1617       15.1617      14.714542       0.01388
  53    0.7617        0.4472        0.0000       15.1613       15.1614      14.714183       0.01386
  52     1.069        0.4472        0.0000       15.1608       15.1609      14.713676       0.01395
  51     1.499        0.4472        0.0001       15.1601       15.1601      14.712971       0.01382
  50     2.102        0.4472        0.0001       15.1590       15.1591      14.711994       0.01366
  49     2.949        0.4471        0.0002       15.1576       15.1577      14.710608       0.01382
  48     4.137        0.4471        0.0002       15.1556       15.1558      14.708663       0.01382
  47     5.803        0.4471        0.0003       15.1528       15.1530      14.705944       0.01377
  46     8.139        0.4471        0.0004       15.1488       15.1492      14.702143       0.01373
  45     11.42        0.4470        0.0005       15.1434       15.1439      14.696826       0.01369
  44     16.01        0.4470        0.0007       15.1357       15.1364      14.689401       0.01363
  43     22.46        0.4469        0.0010       15.1250       15.1260      14.679025       0.01358
  42     31.51        0.4468        0.0013       15.1100       15.1114      14.664538       0.01351
  41     44.20        0.4467        0.0019       15.0892       15.0910      14.644310       0.01345
  40     62.00        0.4465        0.0026       15.0603       15.0629      14.616348       0.01326
  39     85.78        0.4463        0.0036       15.0222       15.0258      14.579463       0.01309
  38     109.5        0.4461        0.0046       14.9840       14.9886      14.542478       0.01313
  37     133.1        0.4459        0.0055       14.9477       14.9532      14.507314       0.01263
  36     156.8        0.4457        0.0064       14.9128       14.9192      14.473498       0.01199
  35     180.6        0.4455        0.0074       14.8761       14.8835      14.437989       0.01261
  34     202.8        0.4453        0.0083       14.8412       14.8495      14.404170       0.01284
  33     228.4        0.4452        0.0093       14.8060       14.8152      14.370050       0.01126
  32     252.2        0.4450        0.0102       14.7710       14.7812      14.336168       0.01203
  31     276.0        0.4448        0.0111       14.7367       14.7478      14.302969       0.01178
  30     299.8        0.4447        0.0120       14.7024       14.7145      14.269781       0.01178
  29     323.5        0.4446        0.0130       14.6683       14.6813      14.236727       0.01173
  28     347.3        0.4444        0.0139       14.6347       14.6486      14.204130       0.01157
  27     371.1        0.4443        0.0148       14.6016       14.6164      14.172058       0.01138
  26     394.9        0.4442        0.0157       14.5681       14.5838      14.139600       0.01152
  25     418.6        0.4441        0.0166       14.5347       14.5514      14.107215       0.01150
  24     442.4        0.4441        0.0175       14.5013       14.5189      14.074778       0.01151
  23     466.2        0.4440        0.0184       14.4678       14.4862      14.042131       0.01159
  22     489.9        0.4440        0.0193       14.4344       14.4537      14.009658       0.01153
  21     513.7        0.4440        0.0202       14.4006       14.4208      13.976736       0.01169
  20     537.5        0.4441        0.0211       14.3668       14.3879      13.943789       0.01169
  19     561.3        0.4441        0.0219       14.3329       14.3548      13.910710       0.01174
  18     585.0        0.4442        0.0228       14.2981       14.3209      13.876658       0.01209
  17     608.8        0.4443        0.0237       14.2631       14.2868      13.842438       0.01215
  16     632.6        0.4445        0.0245       14.2280       14.2525      13.808032       0.01221
  15     656.4        0.4447        0.0254       14.1920       14.2174      13.772668       0.01255
  14     680.1        0.4449        0.0262       14.1557       14.1819      13.737035       0.01265
  13     703.9        0.4452        0.0271       14.1192       14.1463      13.701109       0.01275
  12     727.7        0.4455        0.0279       14.0820       14.1099      13.664394       0.01303
  11     751.5        0.4458        0.0287       14.0441       14.0728      13.626986       0.01328
  10     775.2        0.4462        0.0295       14.0061       14.0356      13.589411       0.01334
   9     799.0        0.4466        0.0303       13.9679       13.9983      13.551661       0.01340
   8     822.8        0.4470        0.0312       13.9289       13.9601      13.513044       0.01371
   7     846.6        0.4475        0.0320       13.8895       13.9214      13.473900       0.01389
   6     870.4        0.4481        0.0328       13.8497       13.8824      13.434385       0.01403
   5     894.1        0.4486        0.0335       13.8095       13.8431      13.394424       0.01418
   4     917.9        0.4493        0.0343       13.7685       13.8028      13.353520       0.01452
   3     941.7        0.4500        0.0351       13.7267       13.7618      13.311790       0.01481
   2     965.5        0.4507        0.0358       13.6844       13.7202      13.269526       0.01500
   1     989.2        0.4515        0.0366       13.6417       13.6783      13.226737       0.01519
   0    1013.0        0.4524        0.0373       13.5985       13.6358      13.183405       0.01538



 Wavenumbers:  8050. - 12850. cm-1, ATM      1
 LEVEL PRESSURE   UPWARD FLUX   DIFDOWN FLUX  DIRDOWN FLUX  DOWNWARD FLUX   NET FLUX    HEATING RATE
          mb          W/m2          W/m2          W/m2        W/m2          W/m2       degree/day
  60   .000300        7.2486        0.0000      212.2880      212.2880     205.039339       0.00000
  59    0.1000        7.2484        0.0002      212.2876      212.2878     205.039339       0.00000
  58    0.1403        7.2484        0.0003      212.2874      212.2877     205.039339      -0.00000
  57    0.1968        7.2483        0.0004      212.2872      212.2876     205.039339       0.00000
  56    0.2760        7.2481        0.0006      212.2869      212.2874     205.039339      -0.00000
  55    0.3871        7.2479        0.0008      212.2864      212.2872     205.039339       0.00000
  54    0.5430        7.2476        0.0011      212.2858      212.2869     205.039339       0.00000
  53    0.7617        7.2472        0.0016      212.2850      212.2865     205.039339       0.00000
  52     1.069        7.2466        0.0022      212.2837      212.2859     205.039339      -0.00000
  51     1.499        7.2458        0.0031      212.2820      212.2851     205.039339       0.00000
  50     2.102        7.2437        0.0052      212.2778      212.2831     205.039339       0.00000
  49     2.949        7.2418        0.0073      212.2738      212.2811     205.039339       0.00000
  48     4.137        7.2394        0.0099      212.2688      212.2787     205.039339       0.00000
  47     5.803        7.2361        0.0134      212.2621      212.2755     205.039339       0.00000
  46     8.139        7.2316        0.0182      212.2528      212.2710     205.039339      -0.00000
  45     11.42        7.2254        0.0249      212.2399      212.2647     205.039339       0.00000
  44     16.01        7.2167        0.0342      212.2218      212.2560     205.039339      -0.00000
  43     22.46        7.2044        0.0472      212.1965      212.2438     205.039339       0.00000
  42     31.51        7.1873        0.0656      212.1611      212.2266     205.039339       0.00000
  41     44.20        7.1632        0.0913      212.1113      212.2025     205.039339       0.00000
  40     62.00        7.1296        0.1271      212.0418      212.1689     205.039339      -0.00000
  39     85.78        7.0846        0.1750      211.9489      212.1240     205.039339       0.00000
  38     109.5        7.0390        0.2237      211.8445      212.0682     205.029243       0.00358
  37     133.1        6.9951        0.2705      211.7383      212.0089     205.013834       0.00553
  36     156.8        6.9523        0.3161      211.6153      211.9314     204.979068       0.01233
  35     180.6        6.9069        0.3644      211.4502      211.8147     204.907753       0.02532
  34     202.8        6.8633        0.4109      211.2446      211.6555     204.792227       0.04386
  33     228.4        6.8187        0.4583      211.0406      211.4989     204.680230       0.03695
  32     252.2        6.7740        0.5057      210.7822      211.2879     204.513922       0.05903
  31     276.0        6.7300        0.5524      210.4658      211.0182     204.288171       0.08013
  30     299.8        6.6858        0.5992      210.0826      210.6818     203.996052       0.10369
  29     323.5        6.6417        0.6459      209.6346      210.2805     203.638836       0.12680
  28     347.3        6.5983        0.6920      209.1280      209.8199     203.221658       0.14808
  27     371.1        6.5558        0.7371      208.5631      209.3003     202.744509       0.16937
  26     394.9        6.5131        0.7825      207.9162      208.6987     202.185684       0.19836
  25     418.6        6.4710        0.8273      207.1849      208.0122     201.541263       0.22874
  24     442.4        6.4295        0.8715      206.3570      207.2285     200.798990       0.26348
  23     466.2        6.3887        0.9152      205.4241      206.3393     199.950590       0.30115
  22     489.9        6.3491        0.9577      204.3974      205.3550     199.005951       0.33531
  21     513.7        6.3102        0.9997      203.2617      204.2613     197.951129       0.37442
  20     537.5        6.2728        1.0405      202.0337      203.0742     196.801365       0.40812
  19     561.3        6.2369        1.0802      200.7173      201.7974     195.560584       0.44043
  18     585.0        6.2018        1.1195      199.2849      200.4044     194.202554       0.48204
  17     608.8        6.1686        1.1575      197.7865      198.9440     192.775436       0.50657
  16     632.6        6.1372        1.1945      196.2424      197.4369     191.299658       0.52384
  15     656.4        6.1072        1.2310      194.6269      195.8580     189.750758       0.54980
  14     680.1        6.0793        1.2665      192.9848      194.2513     188.172007       0.56039
  13     703.9        6.0535        1.3010      191.3308      192.6318     186.578289       0.56570
  12     727.7        6.0296        1.3351      189.6605      190.9956     184.966051       0.57228
  11     751.5        6.0075        1.3688      187.9926      189.3614     183.353953       0.57223
  10     775.2        5.9875        1.4019      186.3576      187.7595     181.772005       0.56153
   9     799.0        5.9698        1.4343      184.7529      186.1872     180.217406       0.55182
   8     822.8        5.9544        1.4665      183.1421      184.6085     178.654172       0.55488
   7     846.6        5.9419        1.4980      181.5360      183.0340     177.092107       0.55447
   6     870.4        5.9327        1.5286      179.9342      181.4628     175.530078       0.55446
   5     894.1        5.9274        1.5583      178.3356      179.8939     173.966496       0.55501
   4     917.9        5.9264        1.5875      176.7201      178.3076     172.381176       0.56272
   3     941.7        5.9304        1.6160      175.0956      176.7116     170.781238       0.56791
   2     965.5        5.9401        1.6437      173.4758      175.1195     169.179407       0.56858
   1     989.2        5.9563        1.6705      171.8643      173.5348     167.578489       0.56814
   0    1013.0        5.9802        1.6965      170.2622      171.9587     165.978422       0.56808



 Wavenumbers: 12850. - 16000. cm-1, ATM      1
 LEVEL PRESSURE   UPWARD FLUX   DIFDOWN FLUX  DIRDOWN FLUX  DOWNWARD FLUX   NET FLUX    HEATING RATE
          mb          W/m2          W/m2          W/m2        W/m2          W/m2       degree/day
  60   .000300        8.3511        0.0000      133.0172      133.0172     124.666064       0.00000
  59    0.1000        8.3507        0.0004      133.0095      133.0100     124.659239       0.57770
  58    0.1403        8.3506        0.0006      133.0064      133.0071     124.656476       0.57858
  57    0.1968        8.3504        0.0009      133.0021      133.0030     124.652604       0.57839
  56    0.2760        8.3501        0.0012      132.9962      132.9974     124.647277       0.56761
  55    0.3871        8.3498        0.0017      132.9880      132.9897     124.639943       0.55709
  54    0.5430        8.3493        0.0024      132.9769      132.9793     124.630037       0.53623
  53    0.7617        8.3486        0.0034      132.9618      132.9652     124.616585       0.51909
  52     1.069        8.3478        0.0048      132.9413      132.9460     124.598205       0.50558
  51     1.499        8.3469        0.0067      132.9135      132.9201     124.573282       0.48879
  50     2.102        8.3440        0.0114      132.8709      132.8823     124.538305       0.48902
  49     2.949        8.3425        0.0158      132.8122      132.8281     124.485625       0.52513
  48     4.137        8.3417        0.0215      132.7265      132.7479     124.406245       0.56408
  47     5.803        8.3415        0.0290      132.6051      132.6341     124.292575       0.57583
  46     8.139        8.3411        0.0393      132.4427      132.4820     124.140910       0.54775
  45     11.42        8.3395        0.0536      132.2357      132.2894     123.949919       0.49173
  44     16.01        8.3352        0.0736      131.9760      132.0496     123.714398       0.43230
  43     22.46        8.3266        0.1015      131.6525      131.7539     123.427330       0.37564
  42     31.51        8.3098        0.1404      131.2679      131.4083     123.098451       0.30680
  41     44.20        8.2789        0.1948      130.8383      131.0331     122.754230       0.22892
  40     62.00        8.2278        0.2705      130.3601      130.6307     122.402822       0.16661
  39     85.78        8.1500        0.3714      129.8761      130.2475     122.097455       0.10839
  38     109.5        8.0668        0.4738      129.4730      129.9468     121.880018       0.07718
  37     133.1        7.9851        0.5720      129.1150      129.6870     121.701954       0.06394
  36     156.8        7.9047        0.6672      128.7822      129.4494     121.544695       0.05576
  35     180.6        7.8181        0.7681      128.4431      129.2113     121.393122       0.05381
  34     202.8        7.7337        0.8650      128.1283      128.9933     121.259614       0.05069
  33     228.4        7.6471        0.9635      127.8114      128.7749     121.127768       0.04350
  32     252.2        7.5599        1.0619      127.4940      128.5559     120.995922       0.04680
  31     276.0        7.4735        1.1588      127.1809      128.3397     120.866187       0.04605
  30     299.8        7.3862        1.2562      126.8648      128.1210     120.734832       0.04663
  29     323.5        7.2986        1.3534      126.5462      127.8996     120.600972       0.04751
  28     347.3        7.2118        1.4495      126.2277      127.6771     120.465291       0.04816
  27     371.1        7.1261        1.5439      125.9103      127.4543     120.328148       0.04868
  26     394.9        7.0393        1.6394      125.5852      127.2246     120.185315       0.05070
  25     418.6        6.9528        1.7342      125.2564      126.9906     120.037855       0.05234
  24     442.4        6.8665        1.8286      124.9227      126.7513     119.884770       0.05434
  23     466.2        6.7802        1.9228      124.5824      126.5051     119.724966       0.05672
  22     489.9        6.6950        2.0154      124.2391      126.2546     119.559554       0.05871
  21     513.7        6.6096        2.1082      123.8857      125.9938     119.384212       0.06224
  20     537.5        6.5254        2.1995      123.5264      125.7259     119.200544       0.06519
  19     561.3        6.4422        2.2896      123.1599      125.4495     119.007362       0.06857
  18     585.0        6.3582        2.3804      122.7770      125.1575     118.799243       0.07387
  17     608.8        6.2755        2.4697      122.3868      124.8565     118.580949       0.07749
  16     632.6        6.1941        2.5575      121.9898      124.5473     118.353173       0.08085
  15     656.4        6.1123        2.6457      121.5775      124.2231     118.110789       0.08604
  14     680.1        6.0318        2.7323      121.1582      123.8905     117.858628       0.08951
  13     703.9        5.9526        2.8175      120.7345      123.5520     117.599386       0.09202
  12     727.7        5.8734        2.9025      120.3010      123.2034     117.330058       0.09560
  11     751.5        5.7943        2.9873      119.8592      122.8465     117.052191       0.09863
  10     775.2        5.7162        3.0709      119.4158      122.4867     116.770471       0.10000
   9     799.0        5.6392        3.1533      118.9710      122.1243     116.485071       0.10131
   8     822.8        5.5621        3.2357      118.5171      121.7528     116.190778       0.10446
   7     846.6        5.4857        3.3174      118.0587      121.3761     115.890349       0.10664
   6     870.4        5.4107        3.3977      117.5979      120.9956     115.584926       0.10841
   5     894.1        5.3369        3.4767      117.1347      120.6114     115.274531       0.11018
   4     917.9        5.2637        3.5552      116.6638      120.2190     114.955327       0.11330
   3     941.7        5.1913        3.6331      116.1873      119.8204     114.629033       0.11582
   2     965.5        5.1205        3.7096      115.7095      119.4191     114.298603       0.11729
   1     989.2        5.0511        3.7848      115.2305      119.0153     113.964145       0.11869
   0    1013.0        4.9834        3.8588      114.7510      118.6097     113.626346       0.11993



 Wavenumbers: 16000. - 22650. cm-1, ATM      1
 LEVEL PRESSURE   UPWARD FLUX   DIFDOWN FLUX  DIRDOWN FLUX  DOWNWARD FLUX   NET FLUX    HEATING RATE
          mb          W/m2          W/m2          W/m2        W/m2          W/m2       degree/day
  60   .000300       30.8062        0.0000      212.0812      212.0812     181.274957       0.00000
  59    0.1000       30.8044        0.0025      212.0760      212.0786     181.274148       0.06843
  58    0.1403       30.8037        0.0036      212.0737      212.0772     181.273501       0.13563
  57    0.1968       30.8028        0.0050      212.0701      212.0751     181.272329       0.17497
  56    0.2760       30.8016        0.0070      212.0648      212.0719     181.270269       0.21948
  55    0.3871       30.7999        0.0099      212.0569      212.0667     181.266797       0.26379
  54    0.5430       30.7977        0.0138      212.0449      212.0587     181.260974       0.31519
  53    0.7617       30.7949        0.0194      212.0263      212.0456     181.250700       0.39646
  52     1.069       30.7915        0.0272      211.9965      212.0237     181.232230       0.50804
  51     1.499       30.7877        0.0381      211.9488      211.9869     181.199169       0.64840
  50     2.102       30.7756        0.0650      211.8495      211.9145     181.138863       0.84316
  49     2.949       30.7712        0.0907      211.7072      211.7978     181.026651       1.11856
  48     4.137       30.7727        0.1228      211.4834      211.6062     180.833465       1.37279
  47     5.803       30.7796        0.1657      211.1523      211.3180     180.538381       1.49484
  46     8.139       30.7887        0.2247      210.7005      210.9252     180.136533       1.45130
  45     11.42       30.7944        0.3066      210.1204      210.4271     179.632690       1.29721
  44     16.01       30.7907        0.4204      209.3907      209.8111     179.020435       1.12380
  43     22.46       30.7694        0.5791      208.4798      209.0589     178.289503       0.95645
  42     31.51       30.7115        0.8005      207.3924      208.1929     177.481417       0.75383
  41     44.20       30.5849        1.1096      206.1641      207.2737     176.688806       0.52712
  40     62.00       30.3607        1.5378      204.7643      206.3022     175.941450       0.35433
  39     85.78       30.0023        2.1056      203.2799      205.3855     175.383251       0.19814
  38     109.5       29.6056        2.6779      201.9884      204.6663     175.060794       0.11446
  37     133.1       29.2150        3.2237      200.8061      204.0299     174.814895       0.08831
  36     156.8       28.8301        3.7501      199.6915      203.4416     174.611525       0.07211
  35     180.6       28.4147        4.3049      198.5514      202.8563     174.441626       0.06032
  34     202.8       28.0088        4.8348      197.4963      202.3311     174.322297       0.04531
  33     228.4       27.5915        5.3707      196.4444      201.8151     174.223535       0.03259
  32     252.2       27.1711        5.9035      195.4064      201.3099     174.138742       0.03010
  31     276.0       26.7536        6.4257      194.3967      200.8223     174.068765       0.02484
  30     299.8       26.3311        6.9476      193.3927      200.3403     174.009176       0.02115
  29     323.5       25.9067        7.4661      192.3952      199.8613     173.954586       0.01938
  28     347.3       25.4853        7.9757      191.4141      199.3898     173.904526       0.01777
  27     371.1       25.0683        8.4746      190.4526      198.9272     173.858874       0.01620
  26     394.9       24.6448        8.9762      189.4841      198.4604     173.815539       0.01538
  25     418.6       24.2217        9.4724      188.5236      197.9960     173.774238       0.01466
  24     442.4       23.7984        9.9638      187.5690      197.5329     173.734481       0.01411
  23     466.2       23.3734       10.4523      186.6171      197.0694     173.696003       0.01366
  22     489.9       22.9526       10.9311      185.6804      196.6115     173.658931       0.01316
  21     513.7       22.5289       11.4086      184.7423      196.1509     173.622038       0.01310
  20     537.5       22.1086       11.8775      183.8164      195.6939     173.585295       0.01304
  19     561.3       21.6912       12.3387      182.9008      195.2395     173.548350       0.01311
  18     585.0       21.2675       12.8022      181.9754      194.7776     173.510041       0.01360
  17     608.8       20.8476       13.2572      181.0615      194.3188     173.471127       0.01381
  16     632.6       20.4313       13.7038      180.1591      193.8630     173.431609       0.01403
  15     656.4       20.0101       14.1513      179.2493      193.4006     173.390516       0.01459
  14     680.1       19.5924       14.5907      178.3501      192.9408     173.348407       0.01495
  13     703.9       19.1781       15.0222      177.4610      192.4832     173.305130       0.01536
  12     727.7       18.7610       15.4523      176.5688      192.0211     173.260052       0.01600
  11     751.5       18.3412       15.8808      175.6738      191.5546     173.213353       0.01658
  10     775.2       17.9239       16.3024      174.7872      191.0896     173.165754       0.01690
   9     799.0       17.5091       16.7173      173.9090      190.6263     173.117202       0.01723
   8     822.8       17.0901       17.1320      173.0248      190.1568     173.066727       0.01792
   7     846.6       16.6716       17.5420      172.1443      189.6863     173.014718       0.01846
   6     870.4       16.2557       17.9450      171.2720      189.2171     172.961327       0.01895
   5     894.1       15.8425       18.3414      170.4077      188.7491     172.906635       0.01941
   4     917.9       15.4274       18.7354      169.5419      188.2773     172.849874       0.02015
   3     941.7       15.0118       19.1256      168.6776      187.8032     172.791366       0.02077
   2     965.5       14.5989       19.5092      167.8214      187.3306     172.731671       0.02119
   1     989.2       14.1886       19.8862      166.9733      186.8595     172.670878       0.02157
   0    1013.0       13.7810       20.2568      166.1333      186.3901     172.609095       0.02194



 Wavenumbers: 22650. - 29000. cm-1, ATM      1
 LEVEL PRESSURE   UPWARD FLUX   DIFDOWN FLUX  DIRDOWN FLUX  DOWNWARD FLUX   NET FLUX    HEATING RATE
          mb          W/m2          W/m2          W/m2        W/m2          W/m2       degree/day
  60   .000300       22.0443        0.0000       80.0317       80.0317      57.987453       0.00000
  59    0.1000       22.0424        0.0032       80.0267       80.0299      57.987453       0.00000
  58    0.1403       22.0417        0.0045       80.0247       80.0291      57.987453       0.00000
  57    0.1968       22.0406        0.0063       80.0218       80.0281      57.987453      -0.00000
  56    0.2760       22.0392        0.0088       80.0178       80.0266      57.987453      -0.00000
  55    0.3871       22.0371        0.0124       80.0122       80.0246      57.987453       0.00000
  54    0.5430       22.0342        0.0173       80.0043       80.0217      57.987453       0.00000
  53    0.7617       22.0302        0.0243       79.9933       80.0177      57.987453      -0.00000
  52     1.069       22.0245        0.0341       79.9778       80.0120      57.987453       0.00000
  51     1.499       22.0166        0.0478       79.9562       80.0041      57.987453       0.00000
  50     2.102       21.9971        0.0815       79.9030       79.9845      57.987453      -0.00000
  49     2.949       21.9784        0.1138       79.8521       79.9658      57.987453       0.00000
  48     4.137       21.9550        0.1541       79.7883       79.9424      57.987453      -0.00000
  47     5.803       21.9236        0.2081       79.7029       79.9111      57.987453       0.00000
  46     8.139       21.8804        0.2824       79.5854       79.8678      57.987453       0.00000
  45     11.42       21.8202        0.3855       79.4222       79.8076      57.987453      -0.00000
  44     16.01       21.7362        0.5288       79.1948       79.7236      57.987453       0.00000
  43     22.46       21.6185        0.7285       78.8775       79.6060      57.987453      -0.00000
  42     31.51       21.4536        1.0063       78.4347       79.4410      57.987453       0.00000
  41     44.20       21.2220        1.3923       77.8171       79.2095      57.987453       0.00000
  40     62.00       20.8992        1.9225       76.9641       78.8866      57.987453       0.00000
  39     85.78       20.4684        2.6157       75.8402       78.4559      57.987453       0.00000
  38     109.5       20.0310        3.3030       74.7155       78.0185      57.987453       0.00000
  37     133.1       19.6103        3.9487       73.6491       77.5978      57.987453      -0.00000
  36     156.8       19.2012        4.5623       72.6264       77.1887      57.987453       0.00000
  35     180.6       18.7667        5.1987       71.5554       76.7541      57.987453       0.00000
  34     202.8       18.3485        5.7965       70.5395       76.3360      57.987453       0.00000
  33     228.4       17.9222        6.3912       69.5185       75.9097      57.987453       0.00000
  32     252.2       17.4949        6.9726       68.5097       75.4824      57.987453       0.00000
  31     276.0       17.0727        7.5329       67.5273       75.0602      57.987453      -0.00000
  30     299.8       16.6473        8.0832       66.5515       74.6348      57.987453       0.00000
  29     323.5       16.2211        8.6207       65.5878       74.2085      57.987453      -0.00000
  28     347.3       15.7986        9.1397       64.6464       73.7861      57.987453      -0.00000
  27     371.1       15.3815        9.6389       63.7300       73.3690      57.987453       0.00000
  26     394.9       14.9586       10.1319       62.8141       72.9460      57.987453       0.00000
  25     418.6       14.5366       10.6107       61.9133       72.5240      57.987453      -0.00000
  24     442.4       14.1149       11.0763       61.0261       72.1024      57.987453       0.00000
  23     466.2       13.6921       11.5303       60.1493       71.6796      57.987453      -0.00000
  22     489.9       13.2740       11.9669       59.2945       71.2615      57.987453       0.00000
  21     513.7       12.8533       12.3940       58.4468       70.8408      57.987453       0.00000
  20     537.5       12.4364       12.8052       57.6186       70.4238      57.987453       0.00000
  19     561.3       12.0225       13.2017       56.8083       70.0100      57.987453       0.00000
  18     585.0       11.6028       13.5922       55.9980       69.5902      57.987453       0.00000
  17     608.8       11.1869       13.9676       55.2067       69.1743      57.987453      -0.00000
  16     632.6       10.7748       14.3285       54.4337       68.7622      57.987453       0.00000
  15     656.4       10.3579       14.6824       53.6630       68.3454      57.987453       0.00000
  14     680.1        9.9447       15.0224       52.9098       67.9322      57.987453      -0.00000
  13     703.9        9.5350       15.3489       52.1735       67.5225      57.987453       0.00000
  12     727.7        9.1226       15.6672       51.4429       67.1101      57.987453       0.00000
  11     751.5        8.7077       15.9769       50.7182       66.6951      57.987453       0.00000
  10     775.2        8.2953       16.2745       50.0082       66.2827      57.987453      -0.00000
   9     799.0        7.8855       16.5602       49.3127       65.8730      57.987453      -0.00000
   8     822.8        7.4717       16.8388       48.6203       65.4591      57.987453       0.00000
   7     846.6        7.0583       17.1072       47.9385       65.0458      57.987453      -0.00000
   6     870.4        6.6477       17.3642       47.2709       64.6352      57.987453       0.00000
   5     894.1        6.2397       17.6103       46.6169       64.2271      57.987453       0.00000
   4     917.9        5.8299       17.8481       45.9692       63.8173      57.987453      -0.00000
   3     941.7        5.4196       18.0770       45.3300       63.4070      57.987453      -0.00000
   2     965.5        5.0119       18.2955       44.7039       62.9994      57.987453       0.00000
   1     989.2        4.6069       18.5038       44.0906       62.5944      57.987453       0.00000
   0    1013.0        4.2046       18.7022       43.4898       62.1920      57.987453      -0.00000



 Wavenumbers: 29000. - 38000. cm-1, ATM      1
 LEVEL PRESSURE   UPWARD FLUX   DIFDOWN FLUX  DIRDOWN FLUX  DOWNWARD FLUX   NET FLUX    HEATING RATE
          mb          W/m2          W/m2          W/m2        W/m2          W/m2       degree/day
  60   .000300        5.3706        0.0000       28.2225       28.2225      22.851901       0.00000
  59    0.1000        5.3687        0.0027       28.1859       28.1886      22.819885       2.71001
  58    0.1403        5.3680        0.0038       28.1585       28.1623      22.794327       5.35197
  57    0.1968        5.3671        0.0053       28.1101       28.1155      22.748400       6.85995
  56    0.2760        5.3659        0.0074       28.0271       28.0345      22.668685       8.49398
  55    0.3871        5.3643        0.0103       27.8913       27.9017      22.537416       9.97122
  54    0.5430        5.3623        0.0143       27.6738       27.6881      22.325831      11.45349
  53    0.7617        5.3600        0.0197       27.3185       27.3382      21.978247      13.41246
  52     1.069        5.3575        0.0267       26.7574       26.7841      21.426607      15.17398
  51     1.499        5.3555        0.0357       25.9466       25.9823      20.626784      15.68631
  50     2.102        5.3474        0.0575       24.8708       24.9282      19.580859      14.62344
  49     2.949        5.3481        0.0749       23.6311       23.7060      18.357936      12.19044
  48     4.137        5.3570        0.0947       22.3566       22.4513      17.094274       8.97964
  47     5.803        5.3749        0.1199       21.1304       21.2503      15.875382       6.17469
  46     8.139        5.4009        0.1534       20.0081       20.1615      14.760538       4.02633
  45     11.42        5.4331        0.1987       18.9968       19.1954      13.762396       2.56985
  44     16.01        5.4708        0.2597       18.0601       18.3198      12.849015       1.67652
  43     22.46        5.5144        0.3424       17.1669       17.5093      11.994910       1.11763
  42     31.51        5.5564        0.4548       16.3269       16.7817      11.225291       0.71795
  41     44.20        5.5790        0.6089       15.5493       16.1582      10.579272       0.42963
  40     62.00        5.5698        0.8177       14.7904       15.6080      10.038241       0.25651
  39     85.78        5.4990        1.0887       14.0772       15.1659       9.666930       0.13180
  38     109.5        5.3932        1.3553       13.5020       14.8573       9.464092       0.07200
  37     133.1        5.2844        1.5993       12.9993       14.5985       9.314115       0.05386
  36     156.8        5.1754        1.8248       12.5428       14.3676       9.192222       0.04322
  35     180.6        5.0541        2.0541       12.0922       14.1463       9.092174       0.03552
  34     202.8        4.9318        2.2657       11.6889       13.9546       9.022854       0.02632
  33     228.4        4.8044        2.4715       11.2989       13.7705       8.966055       0.01874
  32     252.2        4.6755        2.6679       10.9254       13.5933       8.917857       0.01711
  31     276.0        4.5466        2.8528       10.5724       13.4252       8.878622       0.01393
  30     299.8        4.4157        3.0300       10.2314       13.2614       8.845723       0.01168
  29     323.5        4.2842        3.1984        9.9019       13.1003       8.816137       0.01050
  28     347.3        4.1537        3.3563        9.5870       12.9433       8.789563       0.00943
  27     371.1        4.0247        3.5039        9.2867       12.7907       8.765962       0.00838
  26     394.9        3.8938        3.6454        8.9926       12.6380       8.744265       0.00770
  25     418.6        3.7632        3.7785        8.7090       12.4875       8.724322       0.00708
  24     442.4        3.6326        3.9036        8.4349       12.3386       8.705936       0.00653
  23     466.2        3.5018        4.0216        8.1692       12.1908       8.689045       0.00600
  22     489.9        3.3723        4.1311        7.9150       12.0460       8.673708       0.00544
  21     513.7        3.2421        4.2341        7.6674       11.9015       8.659412       0.00507
  20     537.5        3.1132        4.3295        7.4298       11.7593       8.646146       0.00471
  19     561.3        2.9852        4.4176        7.2014       11.6190       8.633796       0.00438
  18     585.0        2.8556        4.5005        6.9770       11.4776       8.621990       0.00419
  17     608.8        2.7272        4.5765        6.7617       11.3381       8.610929       0.00393
  16     632.6        2.6001        4.6458        6.5548       11.2006       8.600551       0.00368
  15     656.4        2.4716        4.7101        6.3521       11.0622       8.590608       0.00353
  14     680.1        2.3444        4.7682        6.1574       10.9256       8.581260       0.00332
  13     703.9        2.2182        4.8205        5.9702       10.7907       8.572464       0.00312
  12     727.7        2.0914        4.8679        5.7875       10.6555       8.564060       0.00298
  11     751.5        1.9638        4.9105        5.6094       10.5199       8.556036       0.00285
  10     775.2        1.8371        4.9478        5.4378       10.3856       8.548472       0.00268
   9     799.0        1.7113        4.9802        5.2725       10.2526       8.541338       0.00253
   8     822.8        1.5843        5.0081        5.1106       10.1188       8.534478       0.00244
   7     846.6        1.4575        5.0315        4.9539        9.9854       8.527925       0.00233
   6     870.4        1.3316        5.0504        4.8029        9.8533       8.521696       0.00221
   5     894.1        1.2066        5.0649        4.6575        9.7224       8.515769       0.00210
   4     917.9        1.0811        5.0754        4.5158        9.5911       8.510073       0.00202
   3     941.7        0.9555        5.0819        4.3782        9.4601       8.504613       0.00194
   2     965.5        0.8307        5.0845        4.2457        9.3301       8.499426       0.00184
   1     989.2        0.7068        5.0834        4.1179        9.2013       8.494494       0.00175
   0    1013.0        0.5838        5.0788        3.9948        9.0736       8.489806       0.00166



 Wavenumbers: 38000. - 50000. cm-1, ATM      1
 LEVEL PRESSURE   UPWARD FLUX   DIFDOWN FLUX  DIRDOWN FLUX  DOWNWARD FLUX   NET FLUX    HEATING RATE
          mb          W/m2          W/m2          W/m2        W/m2          W/m2       degree/day
  60   .000300        0.0074        0.0000        1.7407        1.7407       1.733315       0.00000
  59    0.1000        0.0069        0.0006        1.7198        1.7204       1.713515       1.67601
  58    0.1403        0.0067        0.0008        1.7047        1.7056       1.698851       3.07069
  57    0.1968        0.0065        0.0012        1.6784        1.6796       1.673123       3.84300
  56    0.2760        0.0061        0.0016        1.6341        1.6357       1.629564       4.64143
  55    0.3871        0.0057        0.0021        1.5634        1.5655       1.559823       5.29745
  54    0.5430        0.0052        0.0028        1.4543        1.4571       1.451892       5.84250
  53    0.7617        0.0045        0.0034        1.2861        1.2895       1.284955       6.44173
  52     1.069        0.0039        0.0037        1.0457        1.0495       1.045618       6.58346
  51     1.499        0.0033        0.0037        0.7523        0.7559       0.752642       5.74590
  50     2.102        0.0019        0.0038        0.4649        0.4688       0.466877       3.99538
  49     2.949        0.0012        0.0029        0.2570        0.2599       0.258665       2.07552
  48     4.137        0.0008        0.0020        0.1374        0.1394       0.138651       0.85283
  47     5.803        0.0005        0.0014        0.0725        0.0739       0.073364       0.33073
  46     8.139        0.0003        0.0010        0.0386        0.0396       0.039227       0.12329
  45     11.42        0.0002        0.0007        0.0196        0.0203       0.020129       0.04917
  44     16.01        0.0001        0.0004        0.0089        0.0093       0.009204       0.02005
  43     22.46        0.0000        0.0002        0.0034        0.0036       0.003579       0.00736
  42     31.51        0.0000        0.0001        0.0011        0.0012       0.001175       0.00224
  41     44.20        0.0000        0.0000        0.0003        0.0003       0.000325       0.00057
  40     62.00        0.0000        0.0000        0.0001        0.0001       0.000070       0.00012
  39     85.78        0.0000        0.0000        0.0000        0.0000       0.000012       0.00002
  38     109.5        0.0000        0.0000        0.0000        0.0000       0.000002       0.00000
  37     133.1        0.0000        0.0000        0.0000        0.0000       0.000000       0.00000
  36     156.8        0.0000        0.0000        0.0000        0.0000       0.000000       0.00000
  35     180.6        0.0000        0.0000        0.0000        0.0000       0.000000       0.00000
  34     202.8        0.0000        0.0000        0.0000        0.0000       0.000000       0.00000
  33     228.4        0.0000        0.0000        0.0000        0.0000       0.000000       0.00000
  32     252.2        0.0000        0.0000        0.0000        0.0000       0.000000       0.00000
  31     276.0        0.0000        0.0000        0.0000        0.0000       0.000000       0.00000
  30     299.8        0.0000        0.0000        0.0000        0.0000       0.000000       0.00000
  29     323.5        0.0000        0.0000        0.0000        0.0000       0.000000       0.00000
  28     347.3        0.0000        0.0000        0.0000        0.0000       0.000000       0.00000
  27     371.1        0.0000        0.0000        0.0000        0.0000       0.000000       0.00000
  26     394.9        0.0000        0.0000        0.0000        0.0000       0.000000       0.00000
  25     418.6        0.0000        0.0000        0.0000        0.0000       0.000000       0.00000
  24     442.4        0.0000        0.0000        0.0000        0.0000       0.000000       0.00000
  23     466.2        0.0000        0.0000        0.0000        0.0000       0.000000       0.00000
  22     489.9        0.0000        0.0000        0.0000        0.0000       0.000000       0.00000
  21     513.7        0.0000        0.0000        0.0000        0.0000       0.000000       0.00000
  20     537.5        0.0000        0.0000        0.0000        0.0000       0.000000       0.00000
  19     561.3        0.0000        0.0000        0.0000        0.0000       0.000000       0.00000
  18     585.0        0.0000        0.0000        0.0000        0.0000       0.000000       0.00000
  17     608.8        0.0000        0.0000        0.0000        0.0000       0.000000       0.00000
  16     632.6        0.0000        0.0000        0.0000        0.0000       0.000000       0.00000
  15     656.4        0.0000        0.0000        0.0000        0.0000       0.000000       0.00000
  14     680.1        0.0000        0.0000        0.0000        0.0000       0.000000       0.00000
  13     703.9        0.0000        0.0000        0.0000        0.0000       0.000000       0.00000
  12     727.7        0.0000        0.0000        0.0000        0.0000       0.000000       0.00000
  11     751.5        0.0000        0.0000        0.0000        0.0000       0.000000       0.00000
  10     775.2        0.0000        0.0000        0.0000        0.0000       0.000000       0.00000
   9     799.0        0.0000        0.0000        0.0000        0.0000       0.000000       0.00000
   8     822.8        0.0000        0.0000        0.0000        0.0000       0.000000       0.00000
   7     846.6        0.0000        0.0000        0.0000        0.0000       0.000000       0.00000
   6     870.4        0.0000        0.0000        0.0000        0.0000       0.000000       0.00000
   5     894.1        0.0000        0.0000        0.0000        0.0000       0.000000       0.00000
   4     917.9        0.0000        0.0000        0.0000        0.0000       0.000000       0.00000
   3     941.7        0.0000        0.0000        0.0000        0.0000       0.000000       0.00000
   2     965.5        0.0000        0.0000        0.0000        0.0000       0.000000       0.00000
   1     989.2        0.0000        0.0000        0.0000        0.0000       0.000000       0.00000
   0    1013.0        0.0000        0.0000        0.0000        0.0000       0.000000       0.00000



 Wavenumbers:   820. -  2600. cm-1, ATM      1
 LEVEL PRESSURE   UPWARD FLUX   DIFDOWN FLUX  DIRDOWN FLUX  DOWNWARD FLUX   NET FLUX    HEATING RATE
          mb          W/m2          W/m2          W/m2        W/m2          W/m2       degree/day
  60   .000300        0.0568        0.0000        8.1430        8.1430       8.086180       0.00000
  59    0.1000        0.0568        0.0000        8.1340        8.1340       8.077219       0.75847
  58    0.1403        0.0568        0.0000        8.1322        8.1322       8.075455       0.36948
  57    0.1968        0.0568        0.0000        8.1299        8.1299       8.073142       0.34547
  56    0.2760        0.0568        0.0000        8.1271        8.1271       8.070306       0.30214
  55    0.3871        0.0568        0.0000        8.1237        8.1237       8.066878       0.26041
  54    0.5430        0.0568        0.0000        8.1193        8.1193       8.062552       0.23417
  53    0.7617        0.0568        0.0000        8.1133        8.1133       8.056556       0.23139
  52     1.069        0.0568        0.0000        8.1049        8.1049       8.048100       0.23259
  51     1.499        0.0568        0.0000        8.0935        8.0935       8.036716       0.22326
  50     2.102        0.0621        0.0000        2.3452        2.3452       2.283140      80.44280
  49     2.949        0.0646        0.0000        2.1798        2.1798       2.115202       1.67405
  48     4.137        0.0659        0.0000        2.1175        2.1175       2.051537       0.45241
  47     5.803        0.0667        0.0000        2.0873        2.0873       2.020517       0.15714
  46     8.139        0.0672        0.0000        2.0714        2.0714       2.004139       0.05915
  45     11.42        0.0675        0.0000        2.0627        2.0627       1.995227       0.02295
  44     16.01        0.0676        0.0000        2.0580        2.0580       1.990345       0.00896
  43     22.46        0.0677        0.0000        2.0554        2.0554       1.987677       0.00349
  42     31.51        0.0678        0.0000        2.0531        2.0531       1.985289       0.00223
  41     44.20        0.0678        0.0000        2.0518        2.0518       1.983956       0.00089
  40     62.00        0.0679        0.0000        2.0512        2.0512       1.983380       0.00027
  39     85.78        0.0679        0.0000        2.0510        2.0510       1.983177       0.00007
  38     109.5        0.0679        0.0000        2.0510        2.0510       1.983098       0.00003
  37     133.1        0.0679        0.0000        2.0508        2.0509       1.982987       0.00004
  36     156.8        0.0679        0.0000        2.0506        2.0506       1.982774       0.00008
  35     180.6        0.0679        0.0000        2.0503        2.0503       1.982411       0.00013
  34     202.8        0.0679        0.0000        2.0499        2.0499       1.981969       0.00017
  33     228.4        0.0679        0.0000        2.0496        2.0496       1.981692       0.00009
  32     252.2        0.0679        0.0000        2.0493        2.0493       1.981368       0.00012
  31     276.0        0.0679        0.0000        2.0489        2.0489       1.981020       0.00012
  30     299.8        0.0679        0.0000        2.0485        2.0485       1.980577       0.00016
  29     323.5        0.0680        0.0000        2.0480        2.0480       1.980035       0.00019
  28     347.3        0.0680        0.0000        2.0473        2.0473       1.979370       0.00024
  27     371.1        0.0680        0.0000        2.0466        2.0466       1.978570       0.00028
  26     394.9        0.0680        0.0000        2.0456        2.0457       1.977614       0.00034
  25     418.6        0.0681        0.0000        2.0446        2.0446       1.976499       0.00040
  24     442.4        0.0681        0.0000        2.0433        2.0433       1.975218       0.00045
  23     466.2        0.0682        0.0000        2.0419        2.0420       1.973790       0.00051
  22     489.9        0.0682        0.0000        2.0403        2.0403       1.972095       0.00060
  21     513.7        0.0683        0.0000        2.0383        2.0383       1.970039       0.00073
  20     537.5        0.0684        0.0000        2.0360        2.0360       1.967643       0.00085
  19     561.3        0.0685        0.0000        2.0333        2.0333       1.964842       0.00099
  18     585.0        0.0686        0.0000        2.0301        2.0302       1.961535       0.00117
  17     608.8        0.0688        0.0000        2.0264        2.0265       1.957698       0.00136
  16     632.6        0.0689        0.0000        2.0222        2.0222       1.953280       0.00157
  15     656.4        0.0691        0.0000        2.0173        2.0173       1.948186       0.00181
  14     680.1        0.0693        0.0000        2.0119        2.0119       1.942542       0.00200
  13     703.9        0.0696        0.0000        2.0060        2.0060       1.936389       0.00218
  12     727.7        0.0699        0.0000        1.9994        1.9994       1.929546       0.00243
  11     751.5        0.0702        0.0000        1.9921        1.9921       1.921945       0.00270
  10     775.2        0.0705        0.0000        1.9842        1.9842       1.913735       0.00291
   9     799.0        0.0709        0.0000        1.9758        1.9758       1.904938       0.00312
   8     822.8        0.0713        0.0000        1.9666        1.9666       1.895376       0.00339
   7     846.6        0.0717        0.0000        1.9567        1.9567       1.885008       0.00368
   6     870.4        0.0722        0.0000        1.9460        1.9460       1.873839       0.00396
   5     894.1        0.0727        0.0000        1.9345        1.9346       1.861869       0.00425
   4     917.9        0.0733        0.0000        1.9222        1.9222       1.848951       0.00459
   3     941.7        0.0739        0.0000        1.9090        1.9090       1.835119       0.00491
   2     965.5        0.0746        0.0000        1.8949        1.8950       1.820409       0.00522
   1     989.2        0.0753        0.0000        1.8800        1.8800       1.804770       0.00555
   0    1013.0        0.0761        0.0000        1.8642        1.8643       1.788196       0.00588

  Modules and versions used in this calculation:

       rrtmg_sw.1col.f90:  $Revision$                    rrtmg_sw_init.f90:  $Revision$        
     rrtmgsw_cldprop.f90:  $Revision$                  rrtmgsw_cldprmc.f90:  NOT USED          
     rrtmg_sw_reftra.f90:  $Revision$                  rrtmg_sw_spcvrt.f90:  NOT USED          
     rrtmg_sw_spcvmc.f90:  NOT USED                    rrtmgsw_setcoef.f90:  NOT USED          
     rrtmg_sw_taumol.f90:  $Revision$                  rrtmg_sw_vrtqdr.f90:  NOT USED          
                rrtatm.f:  NOT USED                             util_xxx.f:  NOT USED          
                 extra.f:  NOT USED                       rrtmg_sw_k_g.f90:  $Revision$        

