

 Wavenumbers:   820. - 50000. cm-1, ATM      1
 LEVEL PRESSURE   UPWARD FLUX   DIFDOWN FLUX  DIRDOWN FLUX  DOWNWARD FLUX   NET FLUX    HEATING RATE
          mb          W/m2          W/m2          W/m2        W/m2          W/m2       degree/day
  60   .000300      191.8268        0.0000      837.8224      837.8224     645.995633       0.00000
  59    0.1000      191.8210        0.0104      837.7137      837.7241     645.903082       7.83399
  58    0.1403      191.8189        0.0146      837.6563      837.6710     645.852044      10.68786
  57    0.1968      191.8161        0.0205      837.5614      837.5819     645.765801      12.88163
  56    0.2760      191.8125        0.0287      837.4070      837.4357     645.623247      15.18985
  55    0.3871      191.8077        0.0401      837.1641      837.2042     645.396410      17.23048
  54    0.5430      191.8018        0.0558      836.7876      836.8434     645.041648      19.20393
  53    0.7617      191.7948        0.0773      836.1942      836.2714     644.476669      21.80128
  52     1.069      191.7874        0.1067      835.2926      835.3993     643.611901      23.78717
  51     1.499      191.7816        0.1461      834.0471      834.1932     642.411617      23.54026
  50     2.102      191.7819        0.1990      832.4995      832.6986     640.916609      20.90223
  49     2.949      191.7974        0.2729      830.7483      831.0212     639.223766      16.87474
  48     4.137      191.8390        0.3755      828.8944      829.2699     637.430904      12.74017
  47     5.803      191.9117        0.5176      826.9459      827.4636     635.551907       9.51866
  46     8.139      192.0105        0.7153      824.8978      825.6131     633.602639       7.03991
  45     11.42      192.1228        0.9901      822.7006      823.6907     631.567831       5.23889
  44     16.01      192.2386        1.3714      820.2525      821.6238     629.385235       4.00619
  43     22.46      192.3445        1.9011      817.4463      819.3474     627.002879       3.11740
  42     31.51      192.3922        2.6369      814.2518      816.8887     624.496464       2.33814
  41     44.20      192.2906        3.6609      810.6480      814.3089     622.018346       1.64805
  40     62.00      191.9682        5.0720      806.4553      811.5273     619.559057       1.16599
  39     85.78      191.3035        6.9300      801.7674      808.6974     617.393932       0.76853
  38     109.5      190.5028        8.7884      797.4817      806.2701     615.767280       0.57739
  37     133.1      189.6988       10.5435      793.5510      804.0944     614.395663       0.49257
  36     156.8      188.8991       12.2198      789.8548      802.0746     613.175491       0.43267
  35     180.6      188.0250       13.9707      786.0084      799.9791     611.954180       0.43359
  34     202.8      187.1594       15.6281      782.2124      797.8405     610.681042       0.48339
  33     228.4      186.2654       17.2888      778.0467      795.3356     609.070127       0.53150
  32     252.2      185.3631       18.9243      773.4741      792.3984     607.035251       0.72230
  31     276.0      184.4660       20.5122      768.4389      788.9511     604.485090       0.90520
  30     299.8      183.5589       22.0842      762.7642      784.8484     601.289537       1.13429
  29     323.5      182.6512       23.6311      756.6288      780.2599     597.608714       1.30654
  28     347.3      181.7545       25.1367      750.2254      775.3621     593.607671       1.42021
  27     371.1      180.8726       26.5969      743.7251      770.3219     589.449328       1.47604
  26     394.9      179.9837       28.0508      736.8957      764.9466     584.962917       1.59249
  25     418.6      179.1040       29.4749      729.8721      759.3471     580.243009       1.67537
  24     442.4      178.2342       30.8719      722.6783      753.5501     575.315892       1.74892
  23     466.2      177.3723       32.2468      715.4381      747.6848     570.312528       1.77599
  22     489.9      176.5323       33.5814      708.2772      741.8586     565.326284       1.76991
  21     513.7      175.7029       34.8993      701.0441      735.9434     560.240477       1.80525
  20     537.5      174.9003       36.1807      693.8325      730.0131     555.112835       1.82010
  19     561.3      174.1268       37.4285      686.6319      724.0604     549.933638       1.83840
  18     585.0      173.3679       38.6702      679.3701      718.0403     544.672403       1.86752
  17     608.8      172.6442       39.8768      672.2525      712.1292     539.485074       1.84129
  16     632.6      171.9597       41.0494      665.2624      706.3118     534.352113       1.82199
  15     656.4      171.3097       42.2124      658.1915      700.4038     529.094075       1.86639
  14     680.1      170.7206       43.3423      651.1209      694.4632     523.742565       1.89957
  13     703.9      170.2039       44.4401      644.0582      688.4982     518.294355       1.93389
  12     727.7      169.7705       45.5224      636.8758      682.3982     512.627718       2.01142
  11     751.5      169.4550       46.5884      629.4911      676.0795     506.624469       2.13091
  10     775.2      169.3009       47.6250      621.9804      669.6053     500.304401       2.24336
   9     799.0      169.3634       48.6322      614.3441      662.9763     493.612891       2.37521
   8     822.8      131.5958      399.0495      215.2763      614.3257     482.729973       3.86299
   7     846.6       95.4885      493.6789       75.5228      569.2017     473.713289       3.20055
   6     870.4       60.6039      500.3510       26.5257      526.8767     466.272791       2.64107
   5     894.1       26.5828      477.4332        9.3254      486.7586     460.175829       2.16417
   4     917.9       25.7870      472.9053        9.2223      482.1276     456.340553       1.36136
   3     941.7       24.9988      468.4840        9.1210      477.6050     452.606203       1.32554
   2     965.5       24.2259      464.1871        9.0222      473.2093     448.983408       1.28594
   1     989.2       23.4705      460.0065        8.9257      468.9322     445.461679       1.24981
   0    1013.0       22.7357      455.9315        8.8314      464.7629     442.027193       1.21936



 Wavenumbers:  2600. -  3250. cm-1, ATM      1
 LEVEL PRESSURE   UPWARD FLUX   DIFDOWN FLUX  DIRDOWN FLUX  DOWNWARD FLUX   NET FLUX    HEATING RATE
          mb          W/m2          W/m2          W/m2        W/m2          W/m2       degree/day
  60   .000300        0.1979        0.0000        7.3841        7.3841       7.186169       0.00000
  59    0.1000        0.1979        0.0000        7.3840        7.3840       7.186096       0.00613
  58    0.1403        0.1979        0.0000        7.3840        7.3840       7.186067       0.00614
  57    0.1968        0.1979        0.0000        7.3839        7.3839       7.186026       0.00616
  56    0.2760        0.1979        0.0000        7.3839        7.3839       7.185968       0.00613
  55    0.3871        0.1979        0.0000        7.3838        7.3838       7.185884       0.00641
  54    0.5430        0.1979        0.0000        7.3837        7.3837       7.185759       0.00678
  53    0.7617        0.1979        0.0000        7.3835        7.3835       7.185561       0.00761
  52     1.069        0.1979        0.0000        7.3831        7.3831       7.185231       0.00908
  51     1.499        0.1979        0.0000        7.3825        7.3825       7.184623       0.01193
  50     2.102        0.1979        0.0000        7.3814        7.3814       7.183534       0.01522
  49     2.949        0.1979        0.0000        7.3795        7.3795       7.181649       0.01880
  48     4.137        0.1979        0.0000        7.3765        7.3765       7.178635       0.02142
  47     5.803        0.1979        0.0000        7.3721        7.3721       7.174204       0.02245
  46     8.139        0.1979        0.0000        7.3661        7.3661       7.168197       0.02169
  45     11.42        0.1979        0.0000        7.3586        7.3586       7.160691       0.01932
  44     16.01        0.1979        0.0000        7.3500        7.3500       7.152117       0.01574
  43     22.46        0.1979        0.0000        7.3407        7.3407       7.142804       0.01219
  42     31.51        0.1979        0.0000        7.3297        7.3297       7.131846       0.01022
  41     44.20        0.1979        0.0000        7.3134        7.3134       7.115506       0.01087
  40     62.00        0.1979        0.0000        7.2860        7.2860       7.088121       0.01298
  39     85.78        0.1979        0.0000        7.2438        7.2439       7.045969       0.01496
  38     109.5        0.1979        0.0000        7.1969        7.1969       6.999023       0.01666
  37     133.1        0.1979        0.0000        7.1517        7.1518       6.953849       0.01622
  36     156.8        0.1980        0.0001        7.1092        7.1093       6.911323       0.01508
  35     180.6        0.1980        0.0001        7.0662        7.0663       6.868267       0.01529
  34     202.8        0.1980        0.0001        7.0262        7.0262       6.828193       0.01522
  33     228.4        0.1981        0.0001        6.9846        6.9847       6.786603       0.01372
  32     252.2        0.1982        0.0001        6.9407        6.9408       6.742574       0.01563
  31     276.0        0.1983        0.0001        6.8941        6.8942       6.695908       0.01656
  30     299.8        0.1985        0.0001        6.8424        6.8426       6.644067       0.01840
  29     323.5        0.1987        0.0001        6.7849        6.7850       6.586339       0.02049
  28     347.3        0.1990        0.0001        6.7206        6.7207       6.521758       0.02292
  27     371.1        0.1993        0.0001        6.6496        6.6497       6.450392       0.02533
  26     394.9        0.1997        0.0001        6.5676        6.5677       6.367991       0.02925
  25     418.6        0.2002        0.0001        6.4741        6.4743       6.274034       0.03335
  24     442.4        0.2008        0.0001        6.3671        6.3673       6.166449       0.03819
  23     466.2        0.2016        0.0001        6.2486        6.2487       6.047144       0.04235
  22     489.9        0.2024        0.0002        6.1205        6.1206       5.918224       0.04576
  21     513.7        0.2034        0.0002        5.9812        5.9813       5.777932       0.04980
  20     537.5        0.2046        0.0002        5.8338        5.8340       5.629373       0.05273
  19     561.3        0.2060        0.0002        5.6819        5.6820       5.476013       0.05444
  18     585.0        0.2077        0.0002        5.5274        5.5276       5.319901       0.05541
  17     608.8        0.2096        0.0002        5.3761        5.3762       5.166623       0.05441
  16     632.6        0.2118        0.0002        5.2281        5.2283       5.016448       0.05331
  15     656.4        0.2144        0.0002        5.0791        5.0793       4.864812       0.05382
  14     680.1        0.2176        0.0002        4.9299        4.9300       4.712465       0.05408
  13     703.9        0.2213        0.0002        4.7798        4.7799       4.558618       0.05461
  12     727.7        0.2260        0.0002        4.6253        4.6254       4.399487       0.05648
  11     751.5        0.2318        0.0002        4.4633        4.4634       4.231614       0.05959
  10     775.2        0.2393        0.0002        4.2949        4.2950       4.055709       0.06244
   9     799.0        0.2491        0.0002        4.1205        4.1207       3.871636       0.06534
   8     822.8        0.1530        1.3445        1.2755        2.6200       2.466971       0.49860
   7     846.6        0.0918        1.2552        0.3949        1.6501       1.558309       0.32254
   6     870.4        0.0518        0.9090        0.1224        1.0313       0.979581       0.20542
   5     894.1        0.0235        0.6030        0.0379        0.6409       0.617423       0.12855
   4     917.9        0.0242        0.5762        0.0364        0.6125       0.588347       0.01032
   3     941.7        0.0250        0.5507        0.0349        0.5856       0.560629       0.00984
   2     965.5        0.0259        0.5267        0.0334        0.5601       0.534214       0.00938
   1     989.2        0.0269        0.5039        0.0321        0.5359       0.508999       0.00895
   0    1013.0        0.0282        0.4822        0.0308        0.5129       0.484730       0.00862



 Wavenumbers:  3250. -  4000. cm-1, ATM      1
 LEVEL PRESSURE   UPWARD FLUX   DIFDOWN FLUX  DIRDOWN FLUX  DOWNWARD FLUX   NET FLUX    HEATING RATE
          mb          W/m2          W/m2          W/m2        W/m2          W/m2       degree/day
  60   .000300        0.0020        0.0000       12.4485       12.4485      12.446415       0.00000
  59    0.1000        0.0020        0.0000       12.4290       12.4290      12.426913       1.65079
  58    0.1403        0.0020        0.0000       12.4252       12.4252      12.423198       0.77776
  57    0.1968        0.0020        0.0000       12.4208       12.4208      12.418726       0.66803
  56    0.2760        0.0020        0.0000       12.4156       12.4156      12.413563       0.55013
  55    0.3871        0.0020        0.0000       12.4096       12.4096      12.407530       0.45825
  54    0.5430        0.0020        0.0000       12.4022       12.4022      12.400202       0.39669
  53    0.7617        0.0020        0.0000       12.3928       12.3928      12.390742       0.36506
  52     1.069        0.0020        0.0000       12.3807       12.3807      12.378701       0.33119
  51     1.499        0.0020        0.0000       12.3664       12.3664      12.364344       0.28159
  50     2.102        0.0020        0.0000       12.3498       12.3498      12.347710       0.23256
  49     2.949        0.0020        0.0000       12.3302       12.3302      12.328175       0.19473
  48     4.137        0.0020        0.0000       12.3067       12.3068      12.304710       0.16675
  47     5.803        0.0020        0.0000       12.2766       12.2766      12.274592       0.15257
  46     8.139        0.0020        0.0000       12.2347       12.2348      12.232724       0.15121
  45     11.42        0.0020        0.0000       12.1733       12.1733      12.171311       0.15812
  44     16.01        0.0020        0.0000       12.0830       12.0830      12.081000       0.16577
  43     22.46        0.0020        0.0000       11.9527       11.9527      11.950710       0.17049
  42     31.51        0.0020        0.0000       11.7748       11.7748      11.772825       0.16594
  41     44.20        0.0020        0.0001       11.5551       11.5552      11.553188       0.14607
  40     62.00        0.0020        0.0001       11.3050       11.3051      11.303120       0.11856
  39     85.78        0.0019        0.0001       11.0142       11.0143      11.012332       0.10322
  38     109.5        0.0019        0.0001       10.7175       10.7176      10.715712       0.10529
  37     133.1        0.0019        0.0002       10.4459       10.4460      10.444166       0.09752
  36     156.8        0.0019        0.0002       10.1944       10.1946      10.192778       0.08914
  35     180.6        0.0018        0.0002        9.9218        9.9220       9.920220       0.09676
  34     202.8        0.0018        0.0002        9.5970        9.5973       9.595450       0.12331
  33     228.4        0.0018        0.0002        9.1820        9.1823       9.180513       0.13690
  32     252.2        0.0018        0.0003        8.7004        8.7006       8.698872       0.17096
  31     276.0        0.0017        0.0003        8.1693        8.1695       8.167799       0.18851
  30     299.8        0.0017        0.0003        7.5886        7.5889       7.587148       0.20611
  29     323.5        0.0017        0.0003        6.9823        6.9825       6.980818       0.21522
  28     347.3        0.0017        0.0003        6.3629        6.3631       6.361406       0.21987
  27     371.1        0.0017        0.0002        5.7699        5.7701       5.768430       0.21048
  26     394.9        0.0017        0.0002        5.2041        5.2043       5.202591       0.20085
  25     418.6        0.0017        0.0002        4.6962        4.6964       4.694673       0.18029
  24     442.4        0.0017        0.0002        4.2409        4.2411       4.239391       0.16161
  23     466.2        0.0017        0.0002        3.8328        3.8330       3.831217       0.14489
  22     489.9        0.0018        0.0002        3.4648        3.4650       3.463262       0.13061
  21     513.7        0.0018        0.0002        3.1218        3.1220       3.120169       0.12178
  20     537.5        0.0019        0.0002        2.8040        2.8042       2.802294       0.11283
  19     561.3        0.0020        0.0002        2.5083        2.5084       2.506452       0.10501
  18     585.0        0.0021        0.0001        2.2301        2.2302       2.228148       0.09879
  17     608.8        0.0022        0.0001        1.9731        1.9732       1.970986       0.09128
  16     632.6        0.0024        0.0001        1.7337        1.7338       1.731445       0.08503
  15     656.4        0.0026        0.0001        1.5041        1.5042       1.501573       0.08160
  14     680.1        0.0030        0.0001        1.2888        1.2888       1.285867       0.07657
  13     703.9        0.0034        0.0001        1.0908        1.0908       1.087410       0.07044
  12     727.7        0.0041        0.0001        0.9082        0.9083       0.904157       0.06505
  11     751.5        0.0051        0.0001        0.7390        0.7391       0.733994       0.06040
  10     775.2        0.0066        0.0000        0.5856        0.5857       0.579082       0.05499
   9     799.0        0.0090        0.0000        0.4484        0.4484       0.439389       0.04959
   8     822.8        0.0041        0.1055        0.1099        0.2154       0.211336       0.08095
   7     846.6        0.0018        0.0734        0.0262        0.0996       0.097809       0.04030
   6     870.4        0.0007        0.0382        0.0061        0.0443       0.043642       0.01923
   5     894.1        0.0000        0.0175        0.0014        0.0189       0.018902       0.00878
   4     917.9        0.0000        0.0111        0.0009        0.0119       0.011946       0.00247
   3     941.7        0.0000        0.0067        0.0005        0.0072       0.007206       0.00168
   2     965.5        0.0000        0.0038        0.0003        0.0042       0.004150       0.00108
   1     989.2        0.0000        0.0021        0.0002        0.0023       0.002275       0.00067
   0    1013.0        0.0000        0.0011        0.0001        0.0012       0.001180       0.00039



 Wavenumbers:  4000. -  4650. cm-1, ATM      1
 LEVEL PRESSURE   UPWARD FLUX   DIFDOWN FLUX  DIRDOWN FLUX  DOWNWARD FLUX   NET FLUX    HEATING RATE
          mb          W/m2          W/m2          W/m2        W/m2          W/m2       degree/day
  60   .000300        2.2053        0.0000       14.6183       14.6183      12.412914       0.00000
  59    0.1000        2.2053        0.0000       14.6182       14.6182      12.412905       0.00076
  58    0.1403        2.2053        0.0000       14.6182       14.6182      12.412901       0.00076
  57    0.1968        2.2053        0.0000       14.6182       14.6182      12.412896       0.00077
  56    0.2760        2.2053        0.0000       14.6182       14.6182      12.412889       0.00076
  55    0.3871        2.2053        0.0000       14.6182       14.6182      12.412878       0.00080
  54    0.5430        2.2053        0.0000       14.6182       14.6182      12.412863       0.00085
  53    0.7617        2.2053        0.0000       14.6182       14.6182      12.412838       0.00095
  52     1.069        2.2053        0.0000       14.6181       14.6181      12.412796       0.00114
  51     1.499        2.2053        0.0000       14.6180       14.6181      12.412719       0.00152
  50     2.102        2.2053        0.0000       14.6179       14.6179      12.412578       0.00197
  49     2.949        2.2053        0.0000       14.6176       14.6177      12.412325       0.00252
  48     4.137        2.2053        0.0000       14.6172       14.6172      12.411896       0.00305
  47     5.803        2.2053        0.0000       14.6165       14.6165      12.411204       0.00351
  46     8.139        2.2053        0.0000       14.6154       14.6154      12.410122       0.00391
  45     11.42        2.2053        0.0000       14.6137       14.6138      12.408453       0.00430
  44     16.01        2.2053        0.0001       14.6112       14.6112      12.405923       0.00464
  43     22.46        2.2053        0.0001       14.6074       14.6074      12.402151       0.00494
  42     31.51        2.2053        0.0001       14.6017       14.6018      12.396507       0.00526
  41     44.20        2.2053        0.0002       14.5927       14.5929      12.387594       0.00593
  40     62.00        2.2053        0.0002       14.5788       14.5791      12.373753       0.00656
  39     85.78        2.2054        0.0003       14.5592       14.5596      12.354217       0.00693
  38     109.5        2.2055        0.0004       14.5382       14.5386      12.333096       0.00750
  37     133.1        2.2057        0.0005       14.5177       14.5182      12.312563       0.00737
  36     156.8        2.2059        0.0006       14.4977       14.4983      12.292393       0.00715
  35     180.6        2.2062        0.0007       14.4759       14.4766      12.270432       0.00780
  34     202.8        2.2065        0.0008       14.4536       14.4544      12.247888       0.00856
  33     228.4        2.2070        0.0009       14.4280       14.4289      12.221912       0.00857
  32     252.2        2.2077        0.0010       14.3983       14.3993      12.191641       0.01075
  31     276.0        2.2085        0.0011       14.3635       14.3646      12.156122       0.01261
  30     299.8        2.2096        0.0012       14.3217       14.3229      12.113266       0.01521
  29     323.5        2.2110        0.0013       14.2720       14.2733      12.062315       0.01809
  28     347.3        2.2127        0.0014       14.2129       14.2143      12.001559       0.02157
  27     371.1        2.2146        0.0014       14.1438       14.1452      11.930557       0.02520
  26     394.9        2.2168        0.0015       14.0605       14.0620      11.845141       0.03032
  25     418.6        2.2193        0.0016       13.9639       13.9655      11.746221       0.03511
  24     442.4        2.2221        0.0017       13.8548       13.8565      11.634320       0.03972
  23     466.2        2.2253        0.0018       13.7365       13.7383      11.512953       0.04308
  22     489.9        2.2289        0.0018       13.6136       13.6154      11.386568       0.04486
  21     513.7        2.2330        0.0019       13.4859       13.4878      11.254814       0.04677
  20     537.5        2.2378        0.0020       13.3568       13.3587      11.120941       0.04752
  19     561.3        2.2433        0.0020       13.2261       13.2281      10.984819       0.04832
  18     585.0        2.2498        0.0021       13.0915       13.0936      10.843809       0.05005
  17     608.8        2.2572        0.0022       12.9542       12.9564      10.699143       0.05135
  16     632.6        2.2657        0.0022       12.8109       12.8132      10.547414       0.05386
  15     656.4        2.2759        0.0023       12.6541       12.6564      10.380481       0.05925
  14     680.1        2.2880        0.0023       12.4832       12.4856      10.197597       0.06492
  13     703.9        2.3025        0.0024       12.2977       12.3001       9.997638       0.07098
  12     727.7        2.3203        0.0024       12.0950       12.0974       9.777088       0.07829
  11     751.5        2.3430        0.0025       11.8732       11.8757       9.532640       0.08677
  10     775.2        2.3722        0.0025       11.6374       11.6399       9.267676       0.09405
   9     799.0        2.4105        0.0025       11.3910       11.3935       8.982996       0.10105
   8     822.8        1.7820        6.2335        3.7112        9.9447       8.162683       0.29118
   7     846.6        1.2056        7.4505        1.2101        8.6606       7.455051       0.25118
   6     870.4        0.6654        7.1290        0.3950        7.5240       6.858583       0.21172
   5     894.1        0.1466        6.3837        0.1290        6.5127       6.366101       0.17481
   4     917.9        0.1484        6.2511        0.1266        6.3777       6.229313       0.04855
   3     941.7        0.1504        6.1232        0.1242        6.2474       6.096992       0.04697
   2     965.5        0.1527        5.9990        0.1218        6.1209       5.968164       0.04573
   1     989.2        0.1554        5.8778        0.1196        5.9973       5.841905       0.04481
   0    1013.0        0.1586        5.7586        0.1173        5.8759       5.717241       0.04426



 Wavenumbers:  4650. -  5150. cm-1, ATM      1
 LEVEL PRESSURE   UPWARD FLUX   DIFDOWN FLUX  DIRDOWN FLUX  DOWNWARD FLUX   NET FLUX    HEATING RATE
          mb          W/m2          W/m2          W/m2        W/m2          W/m2       degree/day
  60   .000300        1.5261        0.0000       13.8369       13.8369      12.310724       0.00000
  59    0.1000        1.5261        0.0000       13.8347       13.8347      12.308606       0.17928
  58    0.1403        1.5261        0.0000       13.8339       13.8339      12.307767       0.17564
  57    0.1968        1.5261        0.0000       13.8327       13.8327      12.306602       0.17409
  56    0.2760        1.5261        0.0000       13.8312       13.8312      12.305013       0.16936
  55    0.3871        1.5261        0.0000       13.8290       13.8290      12.302833       0.16558
  54    0.5430        1.5261        0.0000       13.8260       13.8260      12.299897       0.15891
  53    0.7617        1.5261        0.0000       13.8221       13.8221      12.295993       0.15065
  52     1.069        1.5261        0.0000       13.8170       13.8170      12.290840       0.14174
  51     1.499        1.5261        0.0000       13.8105       13.8105      12.284357       0.12716
  50     2.102        1.5261        0.0000       13.8026       13.8026      12.276486       0.11005
  49     2.949        1.5261        0.0000       13.7933       13.7933      12.267188       0.09268
  48     4.137        1.5261        0.0000       13.7830       13.7831      12.256944       0.07279
  47     5.803        1.5261        0.0000       13.7724       13.7724      12.246297       0.05394
  46     8.139        1.5261        0.0000       13.7615       13.7616      12.235471       0.03910
  45     11.42        1.5261        0.0001       13.7497       13.7498      12.223702       0.03030
  44     16.01        1.5261        0.0001       13.7347       13.7348      12.208675       0.02758
  43     22.46        1.5261        0.0001       13.7122       13.7123      12.186187       0.02943
  42     31.51        1.5261        0.0002       13.6758       13.6760      12.149885       0.03387
  41     44.20        1.5262        0.0003       13.6167       13.6170      12.090798       0.03930
  40     62.00        1.5263        0.0004       13.5244       13.5248      11.998452       0.04378
  39     85.78        1.5266        0.0005       13.3944       13.3949      11.868350       0.04618
  38     109.5        1.5270        0.0006       13.2650       13.2657      11.738713       0.04602
  37     133.1        1.5274        0.0008       13.1487       13.1495      11.622089       0.04188
  36     156.8        1.5280        0.0009       13.0449       13.0458      11.517777       0.03699
  35     180.6        1.5287        0.0010       12.9437       12.9447      11.416001       0.03613
  34     202.8        1.5295        0.0011       12.8534       12.8546      11.325062       0.03453
  33     228.4        1.5305        0.0013       12.7658       12.7671      11.236559       0.02920
  32     252.2        1.5317        0.0014       12.6801       12.6815      11.149854       0.03078
  31     276.0        1.5331        0.0015       12.5950       12.5965      11.063448       0.03067
  30     299.8        1.5349        0.0016       12.5053       12.5069      10.972074       0.03243
  29     323.5        1.5370        0.0018       12.4093       12.4110      10.874011       0.03481
  28     347.3        1.5395        0.0019       12.3075       12.3093      10.769815       0.03699
  27     371.1        1.5424        0.0020       12.1993       12.2013      10.658840       0.03939
  26     394.9        1.5459        0.0021       12.0815       12.0836      10.537760       0.04298
  25     418.6        1.5498        0.0022       11.9549       11.9570      10.407257       0.04632
  24     442.4        1.5543        0.0023       11.8185       11.8208      10.266543       0.04995
  23     466.2        1.5594        0.0024       11.6730       11.6754      10.115986       0.05344
  22     489.9        1.5652        0.0025       11.5203       11.5228       9.957607       0.05622
  21     513.7        1.5717        0.0026       11.3577       11.3602       9.788509       0.06002
  20     537.5        1.5791        0.0026       11.1878       11.1905       9.611354       0.06288
  19     561.3        1.5875        0.0027       11.0105       11.0132       9.425706       0.06590
  18     585.0        1.5971        0.0028       10.8249       10.8276       9.230591       0.06926
  17     608.8        1.6078        0.0028       10.6366       10.6394       9.031694       0.07060
  16     632.6        1.6197        0.0029       10.4463       10.4492       8.829507       0.07177
  15     656.4        1.6336        0.0029       10.2497       10.2526       8.619050       0.07470
  14     680.1        1.6494        0.0030       10.0509       10.0539       8.404578       0.07613
  13     703.9        1.6674        0.0030        9.8514        9.8544       8.187058       0.07721
  12     727.7        1.6885        0.0031        9.6483        9.6514       7.962941       0.07955
  11     751.5        1.7136        0.0031        9.4402        9.4433       7.729705       0.08279
  10     775.2        1.7437        0.0032        9.2294        9.2326       7.488827       0.08550
   9     799.0        1.7802        0.0032        9.0169        9.0201       7.239873       0.08837
   8     822.8        1.3152        4.8431        2.9609        7.8040       6.488753       0.26662
   7     846.6        0.8919        5.7628        0.9730        6.7358       5.843866       0.22891
   6     870.4        0.4962        5.4762        0.3199        5.7961       5.299830       0.19311
   5     894.1        0.1176        4.8636        0.1052        4.9688       4.851264       0.15922
   4     917.9        0.1194        4.7490        0.1030        4.8520       4.732584       0.04213
   3     941.7        0.1215        4.6378        0.1008        4.7386       4.617108       0.04099
   2     965.5        0.1238        4.5302        0.0987        4.6289       4.505025       0.03978
   1     989.2        0.1265        4.4259        0.0966        4.5225       4.396006       0.03869
   0    1013.0        0.1295        4.3248        0.0945        4.4193       4.289828       0.03770



 Wavenumbers:  5150. -  6150. cm-1, ATM      1
 LEVEL PRESSURE   UPWARD FLUX   DIFDOWN FLUX  DIRDOWN FLUX  DOWNWARD FLUX   NET FLUX    HEATING RATE
          mb          W/m2          W/m2          W/m2        W/m2          W/m2       degree/day
  60   .000300        4.2620        0.0000       34.6891       34.6891      30.427070       0.00000
  59    0.1000        4.2620        0.0000       34.6886       34.6886      30.426574       0.04200
  58    0.1403        4.2620        0.0000       34.6884       34.6884      30.426374       0.04192
  57    0.1968        4.2620        0.0000       34.6881       34.6881      30.426092       0.04209
  56    0.2760        4.2620        0.0000       34.6877       34.6877      30.425701       0.04166
  55    0.3871        4.2620        0.0000       34.6871       34.6871      30.425151       0.04175
  54    0.5430        4.2620        0.0000       34.6864       34.6864      30.424386       0.04146
  53    0.7617        4.2620        0.0000       34.6853       34.6853      30.423316       0.04126
  52     1.069        4.2620        0.0000       34.6838       34.6838      30.421810       0.04144
  51     1.499        4.2620        0.0000       34.6817       34.6817      30.419719       0.04100
  50     2.102        4.2620        0.0001       34.6787       34.6788      30.416830       0.04040
  49     2.949        4.2620        0.0001       34.6746       34.6747      30.412750       0.04067
  48     4.137        4.2619        0.0001       34.6689       34.6690      30.407076       0.04032
  47     5.803        4.2619        0.0002       34.6610       34.6612      30.399252       0.03963
  46     8.139        4.2619        0.0002       34.6502       34.6504      30.388532       0.03872
  45     11.42        4.2619        0.0003       34.6356       34.6359      30.373977       0.03747
  44     16.01        4.2619        0.0004       34.6159       34.6163      30.354466       0.03581
  43     22.46        4.2618        0.0006       34.5899       34.5905      30.328691       0.03373
  42     31.51        4.2618        0.0009       34.5564       34.5572      30.295411       0.03105
  41     44.20        4.2618        0.0012       34.5139       34.5152      30.253315       0.02800
  40     62.00        4.2619        0.0017       34.4619       34.4636      30.201662       0.02449
  39     85.78        4.2621        0.0024       34.4020       34.4044      30.142292       0.02107
  38     109.5        4.2622        0.0030       34.3491       34.3521      30.089890       0.01860
  37     133.1        4.2624        0.0036       34.3031       34.3068      30.044335       0.01636
  36     156.8        4.2626        0.0043       34.2595       34.2638      30.001121       0.01532
  35     180.6        4.2629        0.0049       34.2031       34.2080      29.945114       0.01988
  34     202.8        4.2631        0.0055       34.1091       34.1147      29.851572       0.03552
  33     228.4        4.2634        0.0061       33.9252       33.9314      29.667969       0.06058
  32     252.2        4.2637        0.0067       33.6087       33.6154      29.351644       0.11228
  31     276.0        4.2641        0.0072       33.1225       33.1298      28.865634       0.17251
  30     299.8        4.2647        0.0077       32.4763       32.4841      28.219379       0.22939
  29     323.5        4.2654        0.0082       31.7610       31.7692      27.503749       0.25402
  28     347.3        4.2663        0.0086       31.0137       31.0223      26.755975       0.26543
  27     371.1        4.2675        0.0089       30.2247       30.2336      25.966118       0.28037
  26     394.9        4.2690        0.0092       29.3520       29.3612      25.092237       0.31019
  25     418.6        4.2708        0.0095       28.4400       28.4495      24.178702       0.32427
  24     442.4        4.2731        0.0097       27.5194       27.5292      23.256061       0.32750
  23     466.2        4.2759        0.0100       26.6227       26.6327      22.356850       0.31918
  22     489.9        4.2792        0.0102       25.7669       25.7770      21.497810       0.30492
  21     513.7        4.2834        0.0104       24.9371       24.9474      20.664033       0.29596
  20     537.5        4.2886        0.0105       24.1537       24.1643      19.875735       0.27981
  19     561.3        4.2949        0.0107       23.4247       23.4355      19.140577       0.26095
  18     585.0        4.3027        0.0109       22.7500       22.7609      18.458259       0.24219
  17     608.8        4.3120        0.0111       22.1480       22.1591      17.847176       0.21691
  16     632.6        4.3231        0.0113       21.6116       21.6229      17.299812       0.19429
  15     656.4        4.3369        0.0115       21.1193       21.1308      16.793952       0.17956
  14     680.1        4.3539        0.0117       20.6722       20.6839      16.329993       0.16469
  13     703.9        4.3749        0.0119       20.2664       20.2783      15.903341       0.15144
  12     727.7        4.4016        0.0121       19.8884       19.9006      15.498948       0.14354
  11     751.5        4.4361        0.0123       19.5264       19.5388      15.102641       0.14067
  10     775.2        4.4811        0.0125       19.1765       19.1891      14.707955       0.14010
   9     799.0        4.5404        0.0127       18.8290       18.8417      14.301325       0.14434
   8     822.8        3.3983       10.6507        6.2739       16.9246      13.526309       0.27510
   7     846.6        2.3302       13.0742        2.0912       15.1654      12.835225       0.24531
   6     870.4        1.3162       12.8577        0.6974       13.5551      12.238922       0.21166
   5     894.1        0.3348       11.8373        0.2327       12.0700      11.735202       0.17880
   4     917.9        0.3368       11.6193        0.2287       11.8480      11.511278       0.07948
   3     941.7        0.3392       11.4132        0.2249       11.6381      11.298935       0.07537
   2     965.5        0.3422       11.2212        0.2213       11.4425      11.100274       0.07052
   1     989.2        0.3459       11.0435        0.2179       11.2614      10.915551       0.06556
   0    1013.0        0.3506       10.8797        0.2147       11.0944      10.743796       0.06098



 Wavenumbers:  6150. -  7700. cm-1, ATM      1
 LEVEL PRESSURE   UPWARD FLUX   DIFDOWN FLUX  DIRDOWN FLUX  DOWNWARD FLUX   NET FLUX    HEATING RATE
          mb          W/m2          W/m2          W/m2        W/m2          W/m2       degree/day
  60   .000300        6.6492        0.0000       64.1588       64.1588      57.509597       0.00000
  59    0.1000        6.6492        0.0000       64.1581       64.1581      57.508937       0.05584
  58    0.1403        6.6492        0.0000       64.1578       64.1578      57.508670       0.05593
  57    0.1968        6.6492        0.0000       64.1574       64.1574      57.508294       0.05625
  56    0.2760        6.6491        0.0000       64.1569       64.1569      57.507770       0.05580
  55    0.3871        6.6491        0.0000       64.1561       64.1562      57.507032       0.05604
  54    0.5430        6.6491        0.0001       64.1551       64.1551      57.506002       0.05578
  53    0.7617        6.6491        0.0001       64.1536       64.1537      57.504560       0.05562
  52     1.069        6.6491        0.0001       64.1515       64.1516      57.502528       0.05590
  51     1.499        6.6490        0.0002       64.1486       64.1487      57.499711       0.05524
  50     2.102        6.6490        0.0002       64.1446       64.1448      57.495823       0.05437
  49     2.949        6.6489        0.0003       64.1389       64.1392      57.490337       0.05468
  48     4.137        6.6488        0.0005       64.1310       64.1315      57.482705       0.05423
  47     5.803        6.6486        0.0007       64.1201       64.1208      57.472156       0.05344
  46     8.139        6.6484        0.0009       64.1051       64.1060      57.457621       0.05249
  45     11.42        6.6481        0.0013       64.0845       64.0858      57.437704       0.05128
  44     16.01        6.6477        0.0018       64.0565       64.0583      57.410654       0.04965
  43     22.46        6.6471        0.0026       64.0187       64.0213      57.374225       0.04767
  42     31.51        6.6462        0.0036       63.9683       63.9719      57.325715       0.04525
  41     44.20        6.6450        0.0051       63.9021       63.9072      57.262170       0.04226
  40     62.00        6.6434        0.0071       63.8170       63.8241      57.180736       0.03861
  39     85.78        6.6412        0.0098       63.7137       63.7235      57.082333       0.03493
  38     109.5        6.6389        0.0125       63.6174       63.6300      56.991019       0.03241
  37     133.1        6.6368        0.0152       63.5307       63.5458      56.909043       0.02944
  36     156.8        6.6347        0.0177       63.4470       63.4647      56.829987       0.02803
  35     180.6        6.6325        0.0204       63.3411       63.3616      56.729019       0.03585
  34     202.8        6.6305        0.0230       63.1774       63.2004      56.569965       0.06039
  33     228.4        6.6284        0.0256       62.8910       62.9166      56.288173       0.09297
  32     252.2        6.6265        0.0281       62.4548       62.4829      55.856342       0.15328
  31     276.0        6.6248        0.0304       61.8034       61.8338      55.208927       0.22981
  30     299.8        6.6234        0.0325       60.8493       60.8817      54.258304       0.33743
  29     323.5        6.6224        0.0344       59.6406       59.6750      53.052543       0.42800
  28     347.3        6.6220        0.0361       58.2994       58.3355      51.713436       0.47533
  27     371.1        6.6223        0.0377       56.9373       56.9750      50.352694       0.48301
  26     394.9        6.6234        0.0391       55.4853       55.5244      48.901034       0.51528
  25     418.6        6.6255        0.0403       53.9434       53.9837      47.358168       0.54765
  24     442.4        6.6289        0.0414       52.3152       52.3566      45.727675       0.57876
  23     466.2        6.6337        0.0423       50.6699       50.7122      44.078512       0.58538
  22     489.9        6.6401        0.0432       49.0609       49.1041      42.463947       0.57310
  21     513.7        6.6488        0.0439       47.4627       47.5066      40.857811       0.57011
  20     537.5        6.6600        0.0445       45.9016       45.9462      39.286121       0.55789
  19     561.3        6.6744        0.0451       44.3828       44.4279      37.753459       0.54403
  18     585.0        6.6926        0.0456       42.9069       42.9524      36.259846       0.53017
  17     608.8        6.7148        0.0460       41.5192       41.5653      34.850500       0.50026
  16     632.6        6.7417        0.0465       40.2123       40.2587      33.517060       0.47332
  15     656.4        6.7754        0.0468       38.9372       38.9840      32.208627       0.46444
  14     680.1        6.8174        0.0472       37.7038       37.7510      30.933604       0.45258
  13     703.9        6.8698        0.0474       36.5148       36.5622      29.692439       0.44056
  12     727.7        6.9367        0.0476       35.3478       35.3954      28.458754       0.43791
  11     751.5        7.0247        0.0477       34.1879       34.2357      27.210960       0.44292
  10     775.2        7.1410        0.0478       33.0529       33.1007      25.959744       0.44413
   9     799.0        7.2985        0.0478       31.9455       31.9933      24.694770       0.44901
   8     822.8        5.4490       17.9115       10.6617       28.5732      23.124143       0.55751
   7     846.6        3.7306       21.9564        3.5668       25.5232      21.792615       0.47264
   6     870.4        2.1019       21.5870        1.1956       22.7827      20.680771       0.39466
   5     894.1        0.5292       19.8943        0.4015       20.2958      19.766605       0.32449
   4     917.9        0.5350       19.3282        0.3909       19.7191      19.184059       0.20678
   3     941.7        0.5420       18.7989        0.3809       19.1797      18.637677       0.19394
   2     965.5        0.5505       18.3049        0.3714       18.6763      18.125749       0.18171
   1     989.2        0.5609       17.8432        0.3625       18.2057      17.644771       0.17069
   0    1013.0        0.5738       17.4099        0.3540       17.7639      17.190120       0.16142



 Wavenumbers:  7700. -  8050. cm-1, ATM      1
 LEVEL PRESSURE   UPWARD FLUX   DIFDOWN FLUX  DIRDOWN FLUX  DOWNWARD FLUX   NET FLUX    HEATING RATE
          mb          W/m2          W/m2          W/m2        W/m2          W/m2       degree/day
  60   .000300        3.3303        0.0000       15.1626       15.1626      11.832373       0.00000
  59    0.1000        3.3303        0.0000       15.1625       15.1625      11.832190       0.01543
  58    0.1403        3.3303        0.0000       15.1624       15.1624      11.832116       0.01552
  57    0.1968        3.3303        0.0000       15.1623       15.1623      11.832012       0.01560
  56    0.2760        3.3303        0.0000       15.1622       15.1622      11.831867       0.01547
  55    0.3871        3.3303        0.0000       15.1620       15.1620      11.831662       0.01554
  54    0.5430        3.3304        0.0000       15.1617       15.1617      11.831376       0.01548
  53    0.7617        3.3304        0.0000       15.1613       15.1614      11.830976       0.01545
  52     1.069        3.3305        0.0001       15.1608       15.1609      11.830410       0.01556
  51     1.499        3.3305        0.0001       15.1601       15.1602      11.829624       0.01541
  50     2.102        3.3306        0.0001       15.1591       15.1592      11.828535       0.01524
  49     2.949        3.3308        0.0001       15.1576       15.1578      11.826989       0.01541
  48     4.137        3.3310        0.0002       15.1556       15.1558      11.824820       0.01541
  47     5.803        3.3313        0.0003       15.1528       15.1531      11.821788       0.01536
  46     8.139        3.3318        0.0004       15.1489       15.1493      11.817547       0.01532
  45     11.42        3.3324        0.0006       15.1434       15.1440      11.811613       0.01528
  44     16.01        3.3332        0.0008       15.1358       15.1366      11.803322       0.01522
  43     22.46        3.3344        0.0011       15.1251       15.1262      11.791728       0.01517
  42     31.51        3.3361        0.0015       15.1101       15.1117      11.775527       0.01511
  41     44.20        3.3385        0.0022       15.0892       15.0914      11.752876       0.01506
  40     62.00        3.3419        0.0030       15.0604       15.0634      11.721508       0.01487
  39     85.78        3.3464        0.0042       15.0223       15.0265      11.680026       0.01472
  38     109.5        3.3511        0.0053       14.9841       14.9895      11.638312       0.01481
  37     133.1        3.3557        0.0064       14.9478       14.9543      11.598538       0.01428
  36     156.8        3.3603        0.0075       14.9129       14.9204      11.560188       0.01360
  35     180.6        3.3651        0.0086       14.8763       14.8849      11.519818       0.01433
  34     202.8        3.3699        0.0097       14.8414       14.8512      11.481276       0.01463
  33     228.4        3.3748        0.0108       14.8062       14.8171      11.442252       0.01288
  32     252.2        3.3798        0.0119       14.7713       14.7832      11.403385       0.01380
  31     276.0        3.3849        0.0130       14.7370       14.7500      11.365171       0.01356
  30     299.8        3.3901        0.0141       14.7027       14.7169      11.326808       0.01362
  29     323.5        3.3954        0.0152       14.6685       14.6838      11.288407       0.01363
  28     347.3        3.4007        0.0163       14.6347       14.6511      11.250304       0.01353
  27     371.1        3.4062        0.0174       14.6014       14.6188      11.212578       0.01339
  26     394.9        3.4119        0.0185       14.5675       14.5860      11.174116       0.01365
  25     418.6        3.4178        0.0196       14.5336       14.5532      11.135421       0.01374
  24     442.4        3.4238        0.0206       14.4995       14.5202      11.096344       0.01387
  23     466.2        3.4301        0.0217       14.4651       14.4868      11.056721       0.01406
  22     489.9        3.4365        0.0227       14.4307       14.4535      11.016960       0.01411
  21     513.7        3.4433        0.0238       14.3957       14.4195      10.976221       0.01446
  20     537.5        3.4502        0.0248       14.3603       14.3852      10.934962       0.01465
  19     561.3        3.4575        0.0259       14.3246       14.3505      10.893002       0.01489
  18     585.0        3.4652        0.0269       14.2875       14.3145      10.849301       0.01551
  17     608.8        3.4731        0.0279       14.2500       14.2780      10.804817       0.01579
  16     632.6        3.4815        0.0289       14.2119       14.2409      10.759401       0.01612
  15     656.4        3.4904        0.0300       14.1722       14.2022      10.711780       0.01690
  14     680.1        3.4998        0.0310       14.1314       14.1623      10.662467       0.01750
  13     703.9        3.5099        0.0319       14.0891       14.1210      10.611152       0.01821
  12     727.7        3.5208        0.0329       14.0446       14.0775      10.556738       0.01931
  11     751.5        3.5327        0.0339       13.9973       14.0312      10.498452       0.02069
  10     775.2        3.5458        0.0349       13.9473       13.9822      10.436404       0.02202
   9     799.0        3.5601        0.0358       13.8944       13.9302      10.370090       0.02354
   8     822.8        2.7029        8.1003        4.8116       12.9118      10.208972       0.05719
   7     846.6        1.8836       10.2781        1.6652       11.9434      10.059808       0.05295
   6     870.4        1.0920       10.4399        0.5763       11.0162       9.924191       0.04814
   5     894.1        0.3203        9.9239        0.1995       10.1233       9.803089       0.04299
   4     917.9        0.3212        9.8736        0.1986       10.0722       9.750968       0.01850
   3     941.7        0.3223        9.8217        0.1976       10.0193       9.697074       0.01913
   2     965.5        0.3234        9.7685        0.1967        9.9651       9.641695       0.01966
   1     989.2        0.3247        9.7139        0.1957        9.9095       9.584825       0.02018
   0    1013.0        0.3261        9.6579        0.1946        9.8526       9.526440       0.02073



 Wavenumbers:  8050. - 12850. cm-1, ATM      1
 LEVEL PRESSURE   UPWARD FLUX   DIFDOWN FLUX  DIRDOWN FLUX  DOWNWARD FLUX   NET FLUX    HEATING RATE
          mb          W/m2          W/m2          W/m2        W/m2          W/m2       degree/day
  60   .000300       41.9512        0.0000      212.2880      212.2880     170.336802       0.00000
  59    0.1000       41.9510        0.0002      212.2876      212.2878     170.336802       0.00000
  58    0.1403       41.9510        0.0003      212.2874      212.2878     170.336802      -0.00000
  57    0.1968       41.9509        0.0005      212.2872      212.2877     170.336802      -0.00000
  56    0.2760       41.9507        0.0007      212.2869      212.2875     170.336802       0.00000
  55    0.3871       41.9506        0.0009      212.2864      212.2874     170.336802       0.00000
  54    0.5430       41.9503        0.0013      212.2858      212.2871     170.336802       0.00000
  53    0.7617       41.9500        0.0018      212.2850      212.2868     170.336802      -0.00000
  52     1.069       41.9495        0.0025      212.2837      212.2863     170.336802       0.00000
  51     1.499       41.9488        0.0035      212.2820      212.2856     170.336802       0.00000
  50     2.102       41.9478        0.0050      212.2797      212.2846     170.336802       0.00000
  49     2.949       41.9465        0.0069      212.2763      212.2833     170.336802      -0.00000
  48     4.137       41.9446        0.0097      212.2717      212.2814     170.336802       0.00000
  47     5.803       41.9420        0.0137      212.2651      212.2788     170.336802       0.00000
  46     8.139       41.9383        0.0191      212.2559      212.2751     170.336802      -0.00000
  45     11.42       41.9331        0.0268      212.2430      212.2699     170.336802       0.00000
  44     16.01       41.9258        0.0376      212.2250      212.2626     170.336802       0.00000
  43     22.46       41.9156        0.0527      212.1998      212.2524     170.336802      -0.00000
  42     31.51       41.9013        0.0738      212.1643      212.2381     170.336802       0.00000
  41     44.20       41.8813        0.1036      212.1145      212.2181     170.336802      -0.00000
  40     62.00       41.8533        0.1450      212.0450      212.1901     170.336802       0.00000
  39     85.78       41.8158        0.2004      211.9522      212.1526     170.336802       0.00000
  38     109.5       41.7780        0.2567      211.8451      212.1018     170.323884       0.00459
  37     133.1       41.7415        0.3109      211.7421      212.0530     170.311507       0.00444
  36     156.8       41.7059        0.3636      211.6412      212.0047     170.298800       0.00451
  35     180.6       41.6681        0.4196      211.5292      211.9488     170.280637       0.00645
  34     202.8       41.6318        0.4735      211.4041      211.8776     170.245854       0.01321
  33     228.4       41.5948        0.5285      211.2349      211.7634     170.168558       0.02550
  32     252.2       41.5581        0.5834      211.0003      211.5838     170.025653       0.05073
  31     276.0       41.5224        0.6375      210.6760      211.3135     169.791086       0.08326
  30     299.8       41.4876        0.6918      210.2328      210.9245     169.436980       0.12569
  29     323.5       41.4542        0.7458      209.6743      210.4201     168.965916       0.16721
  28     347.3       41.4232        0.7989      209.0175      209.8164     168.393189       0.20329
  27     371.1       41.3952        0.8509      208.2872      209.1382     167.742919       0.23082
  26     394.9       41.3701        0.9031      207.4416      208.3447     166.974594       0.27272
  25     418.6       41.3492        0.9545      206.4758      207.4304     166.081186       0.31712
  24     442.4       41.3333        1.0051      205.3737      206.3788     165.045489       0.36763
  23     466.2       41.3231        1.0550      204.1488      205.2038     163.880777       0.41342
  22     489.9       41.3196        1.1035      202.8236      203.9271     162.607583       0.45193
  21     513.7       41.3243        1.1514      201.3667      202.5181     161.193756       0.50185
  20     537.5       41.3391        1.1977      199.7935      200.9912     159.652073       0.54723
  19     561.3       41.3658        1.2426      198.0998      199.3423     157.976533       0.59475
  18     585.0       41.4062        1.2870      196.2781      197.5651     156.158914       0.64518
  17     608.8       41.4611        1.3300      194.3934      195.7234     154.262298       0.67322
  16     632.6       41.5329        1.3715      192.4530      193.8245     152.291594       0.69952
  15     656.4       41.6281        1.4124      190.4000      191.8124     150.184323       0.74799
  14     680.1       41.7519        1.4515      188.2528      189.7042     147.952344       0.79226
  13     703.9       41.9107        1.4888      186.0204      187.5092     145.598442       0.83554
  12     727.7       42.1168        1.5247      183.6647      185.1894     143.072596       0.89657
  11     751.5       42.3892        1.5590      181.1466      182.7056     140.316344       0.97836
  10     775.2       42.7455        1.5909      178.4925      180.0833     137.337859       1.05724
   9     799.0       43.2142        1.6204      175.7106      177.3310     134.116826       1.14333
   8     822.8       32.7530      102.5552       60.9063      163.4616     130.708571       1.20979
   7     846.6       22.8085      129.3261       21.1166      150.4427     127.634242       1.09126
   6     870.4       13.2419      130.8457        7.3243      138.1700     124.928119       0.96056
   5     894.1        3.9377      123.9974        2.5409      126.5383     122.600659       0.82615
   4     917.9        3.9445      121.9942        2.5024      124.4966     120.552091       0.72716
   3     941.7        3.9565      120.0509        2.4647      122.5156     118.559108       0.70743
   2     965.5        3.9747      118.1751        2.4281      120.6032     116.628512       0.68528
   1     989.2        4.0003      116.3616        2.3924      118.7540     114.753741       0.66533
   0    1013.0        4.0352      114.6056        2.3577      116.9633     112.928073       0.64817



 Wavenumbers: 12850. - 16000. cm-1, ATM      1
 LEVEL PRESSURE   UPWARD FLUX   DIFDOWN FLUX  DIRDOWN FLUX  DOWNWARD FLUX   NET FLUX    HEATING RATE
          mb          W/m2          W/m2          W/m2        W/m2          W/m2       degree/day
  60   .000300       31.4232        0.0000      133.0172      133.0172     101.593941       0.00000
  59    0.1000       31.4230        0.0005      133.0095      133.0100     101.587071       0.58156
  58    0.1403       31.4229        0.0007      133.0064      133.0072     101.584271       0.58625
  57    0.1968       31.4228        0.0010      133.0021      133.0031     101.580333       0.58828
  56    0.2760       31.4227        0.0014      132.9962      132.9976     101.574889       0.58003
  55    0.3871       31.4226        0.0020      132.9880      132.9900     101.567359       0.57202
  54    0.5430       31.4225        0.0028      132.9769      132.9797     101.557123       0.55407
  53    0.7617       31.4226        0.0039      132.9618      132.9657     101.543089       0.54155
  52     1.069       31.4231        0.0055      132.9413      132.9467     101.523662       0.53437
  51     1.499       31.4243        0.0076      132.9135      132.9211     101.496865       0.52554
  50     2.102       31.4270        0.0107      132.8748      132.8855     101.458468       0.53685
  49     2.949       31.4331        0.0150      132.8176      132.8325     101.399417       0.58863
  48     4.137       31.4444        0.0210      132.7325      132.7535     101.309049       0.64216
  47     5.803       31.4623        0.0294      132.6115      132.6409     101.178548       0.66110
  46     8.139       31.4866        0.0411      132.4493      132.4905     101.003863       0.63089
  45     11.42       31.5161        0.0575      132.2424      132.3000     100.783840       0.56648
  44     16.01       31.5504        0.0805      131.9828      132.0632     100.512779       0.49754
  43     22.46       31.5888        0.1125      131.6592      131.7717     100.182881       0.43168
  42     31.51       31.6259        0.1573      131.2747      131.4320      99.806083       0.35150
  41     44.20       31.6509        0.2201      130.8450      131.0651      99.414180       0.26063
  40     62.00       31.6572        0.3074      130.3669      130.6743      99.017070       0.18828
  39     85.78       31.6297        0.4238      129.8828      130.3067      98.676913       0.12074
  38     109.5       31.5882        0.5425      129.4797      130.0221      98.433924       0.08625
  37     133.1       31.5420        0.6563      129.1217      129.7781      98.236105       0.07104
  36     156.8       31.4935        0.7668      128.7892      129.5561      98.062516       0.06155
  35     180.6       31.4376        0.8840      128.4511      129.3351      97.897538       0.05857
  34     202.8       31.3794        0.9965      128.1377      129.1342      97.754863       0.05417
  33     228.4       31.3180        1.1110      127.8216      128.9326      97.614588       0.04628
  32     252.2       31.2554        1.2255      127.5049      128.7304      97.475069       0.04952
  31     276.0       31.1924        1.3384      127.1922      128.5305      97.338097       0.04862
  30     299.8       31.1285        1.4518      126.8751      128.3269      97.198438       0.04957
  29     323.5       31.0646        1.5652      126.5537      128.1189      97.054263       0.05118
  28     347.3       31.0018        1.6772      126.2298      127.9070      96.905154       0.05293
  27     371.1       30.9405        1.7875      125.9047      127.6922      96.751749       0.05445
  26     394.9       30.8793        1.8990      125.5688      127.4678      96.588497       0.05795
  25     418.6       30.8196        2.0098      125.2257      127.2355      96.415936       0.06125
  24     442.4       30.7617        2.1201      124.8736      126.9937      96.232004       0.06529
  23     466.2       30.7055        2.2302      124.5111      126.7413      96.035801       0.06964
  22     489.9       30.6522        2.3386      124.1420      126.4806      95.828474       0.07359
  21     513.7       30.6013        2.4471      123.7577      126.2047      95.603403       0.07989
  20     537.5       30.5543        2.5539      123.3614      125.9154      95.361016       0.08604
  19     561.3       30.5117        2.6593      122.9509      125.6102      95.098473       0.09319
  18     585.0       30.4728        2.7654      122.5175      125.2829      94.810158       0.10234
  17     608.8       30.4382        2.8697      122.0752      124.9449      94.506728       0.10771
  16     632.6       30.4084        2.9722      121.6228      124.5950      94.186599       0.11363
  15     656.4       30.3839        3.0748      121.1473      124.2222      93.838258       0.12365
  14     680.1       30.3669        3.1754      120.6531      123.8285      93.461658       0.13368
  13     703.9       30.3585        3.2738      120.1376      123.4113      93.052811       0.14512
  12     727.7       30.3609        3.3714      119.5892      122.9605      92.599683       0.16084
  11     751.5       30.3763        3.4679      119.0038      122.4717      92.095349       0.17902
  10     775.2       30.4076        3.5619      118.3848      121.9467      91.539082       0.19745
   9     799.0       30.4581        3.6533      117.7284      121.3816      90.923544       0.21849
   8     822.8       23.4715       71.8987       41.8425      113.7412      90.269697       0.23209
   7     846.6       16.7518       91.5312       14.8715      106.4028      89.650945       0.21963
   6     870.4       10.2336       94.0275        5.2850       99.3126      89.078913       0.20305
   5     894.1        3.8663       90.5492        1.8781       92.4273      88.561000       0.18384
   4     917.9        3.8177       90.0175        1.8665       91.8839      88.066251       0.17562
   3     941.7        3.7704       89.4796        1.8547       91.3343      87.563855       0.17833
   2     965.5        3.7251       88.9395        1.8428       90.7824      87.057251       0.17982
   1     989.2        3.6818       88.3980        1.8310       90.2290      86.547167       0.18102
   0    1013.0        3.6408       87.8554        1.8191       89.6744      86.033649       0.18232



 Wavenumbers: 16000. - 22650. cm-1, ATM      1
 LEVEL PRESSURE   UPWARD FLUX   DIFDOWN FLUX  DIRDOWN FLUX  DOWNWARD FLUX   NET FLUX    HEATING RATE
          mb          W/m2          W/m2          W/m2        W/m2          W/m2       degree/day
  60   .000300       62.3933        0.0000      212.0812      212.0812     149.687840       0.00000
  59    0.1000       62.3920        0.0028      212.0760      212.0789     149.686904       0.07926
  58    0.1403       62.3915        0.0040      212.0737      212.0777     149.686153       0.15709
  57    0.1968       62.3909        0.0056      212.0701      212.0757     149.684797       0.20266
  56    0.2760       62.3903        0.0079      212.0648      212.0727     149.682411       0.25422
  55    0.3871       62.3895        0.0110      212.0569      212.0679     149.678388       0.30554
  54    0.5430       62.3887        0.0155      212.0449      212.0604     149.671644       0.36509
  53    0.7617       62.3882        0.0217      212.0263      212.0480     149.659743       0.45924
  52     1.069       62.3887        0.0305      211.9965      212.0270     149.638348       0.58850
  51     1.499       62.3914        0.0427      211.9488      211.9915     149.600049       0.75113
  50     2.102       62.3995        0.0596      211.8701      211.9297     149.530180       0.97687
  49     2.949       62.4187        0.0835      211.7353      211.8188     149.400146       1.29622
  48     4.137       62.4561        0.1171      211.5152      211.6323     149.176209       1.59130
  47     5.803       62.5160        0.1640      211.1861      211.3500     148.833997       1.73358
  46     8.139       62.5972        0.2295      210.7354      210.9648     148.367664       1.68419
  45     11.42       62.6943        0.3209      210.1559      210.4768     147.782465       1.50667
  44     16.01       62.8043        0.4485      209.4264      209.8749     147.070579       1.30668
  43     22.46       62.9227        0.6267      208.5155      209.1422     146.219559       1.11359
  42     31.51       63.0264        0.8755      207.4281      208.3036     145.277191       0.87910
  41     44.20       63.0718        1.2233      206.1997      207.4230     144.351200       0.61582
  40     62.00       63.0292        1.7058      204.7997      206.5056     143.476381       0.41476
  39     85.78       62.8399        2.3465      203.3150      205.6615     142.821689       0.23239
  38     109.5       62.5737        2.9931      202.0234      205.0165     142.442814       0.13449
  37     133.1       62.2980        3.6106      200.8408      204.4515     142.153497       0.10390
  36     156.8       62.0190        4.2069      199.7260      203.9329     141.913971       0.08494
  35     180.6       61.7083        4.8361      198.5859      203.4220     141.713734       0.07109
  34     202.8       61.3955        5.4378      197.5309      202.9686     141.573095       0.05340
  33     228.4       61.0695        6.0471      196.4789      202.5260     141.456476       0.03848
  32     252.2       60.7381        6.6536      195.4408      202.0944     141.356262       0.03557
  31     276.0       60.4063        7.2487      194.4310      201.6797     141.273432       0.02940
  30     299.8       60.0684        7.8443      193.4267      201.2710     141.202649       0.02513
  29     323.5       59.7280        8.4369      192.4286      200.8654     141.137423       0.02315
  28     347.3       59.3893        9.0199      191.4464      200.4663     141.077095       0.02141
  27     371.1       59.0535        9.5915      190.4836      200.0750     141.021566       0.01971
  26     394.9       58.7119       10.1669      189.5132      199.6801     140.968208       0.01894
  25     418.6       58.3704       10.7368      188.5503      199.2871     140.916640       0.01830
  24     442.4       58.0286       11.3021      187.5927      198.8947     140.866143       0.01792
  23     466.2       57.6853       11.8647      186.6371      198.5017     140.816468       0.01763
  22     489.9       57.3453       12.4169      185.6961      198.1131     140.767777       0.01728
  21     513.7       57.0030       12.9684      184.7529      197.7213     140.718330       0.01755
  20     537.5       56.6638       13.5108      183.8209      197.3317     140.667923       0.01789
  19     561.3       56.3272       14.0451      182.8981      196.9431     140.615913       0.01846
  18     585.0       55.9860       14.5828      181.9641      196.5469     140.560901       0.01953
  17     608.8       55.6483       15.1113      181.0409      196.1522     140.503905       0.02023
  16     632.6       55.3141       15.6310      180.1276      195.7586     140.444532       0.02107
  15     656.4       54.9766       16.1524      179.2047      195.3571     140.380529       0.02272
  14     680.1       54.6430       16.6652      178.2893      194.9545     140.311534       0.02449
  13     703.9       54.3134       17.1695      177.3803      194.5499     140.236435       0.02666
  12     727.7       53.9833       17.6730      176.4629      194.1359     140.152632       0.02975
  11     751.5       53.6532       18.1754      175.5353      193.7107     140.057506       0.03377
  10     775.2       53.3277       18.6706      174.6074      193.2781     139.950355       0.03803
   9     799.0       53.0073       19.1585      173.6783      192.8368     139.829462       0.04291
   8     822.8       42.2449      119.6077       62.3356      181.9433     139.698429       0.04651
   7     846.6       31.8412      149.0390       22.3730      171.4119     139.570740       0.04532
   6     870.4       21.7154      153.1331        8.0318      161.1648     139.449460       0.04305
   5     894.1       11.8022      148.2549        2.8834      151.1382     139.336062       0.04025
   4     917.9       11.4801      147.8368        2.8675      150.7043     139.224214       0.03970
   3     941.7       11.1577      147.4141        2.8516      150.2657     139.108031       0.04124
   2     965.5       10.8373      146.9900        2.8358      149.8258     138.988494       0.04243
   1     989.2       10.5189      146.5649        2.8201      149.3849     138.866003       0.04347
   0    1013.0       10.2026      146.1390        2.8045      148.9434     138.740802       0.04445



 Wavenumbers: 22650. - 29000. cm-1, ATM      1
 LEVEL PRESSURE   UPWARD FLUX   DIFDOWN FLUX  DIRDOWN FLUX  DOWNWARD FLUX   NET FLUX    HEATING RATE
          mb          W/m2          W/m2          W/m2        W/m2          W/m2       degree/day
  60   .000300       31.4160        0.0000       80.0317       80.0317      48.615760       0.00000
  59    0.1000       31.4144        0.0034       80.0267       80.0301      48.615760       0.00000
  58    0.1403       31.4137        0.0048       80.0247       80.0295      48.615760       0.00000
  57    0.1968       31.4128        0.0068       80.0218       80.0286      48.615760       0.00000
  56    0.2760       31.4116        0.0095       80.0178       80.0273      48.615760      -0.00000
  55    0.3871       31.4098        0.0134       80.0122       80.0256      48.615760       0.00000
  54    0.5430       31.4073        0.0188       80.0043       80.0231      48.615760       0.00000
  53    0.7617       31.4039        0.0263       79.9933       80.0196      48.615760       0.00000
  52     1.069       31.3990        0.0369       79.9778       80.0148      48.615760      -0.00000
  51     1.499       31.3922        0.0517       79.9562       80.0080      48.615760      -0.00000
  50     2.102       31.3828        0.0722       79.9263       79.9986      48.615760      -0.00000
  49     2.949       31.3694        0.1013       79.8839       79.9852      48.615760      -0.00000
  48     4.137       31.3507        0.1421       79.8244       79.9665      48.615760       0.00000
  47     5.803       31.3245        0.1990       79.7412       79.9402      48.615760       0.00000
  46     8.139       31.2878        0.2786       79.6249       79.9035      48.615760      -0.00000
  45     11.42       31.2364        0.3898       79.4623       79.8521      48.615760       0.00000
  44     16.01       31.1644        0.5449       79.2352       79.7802      48.615760       0.00000
  43     22.46       31.0635        0.7613       78.9179       79.6793      48.615760      -0.00000
  42     31.51       30.9220        1.0627       78.4751       79.5378      48.615760       0.00000
  41     44.20       30.7234        1.4819       77.8573       79.3392      48.615760      -0.00000
  40     62.00       30.4465        2.0584       77.0038       79.0623      48.615760       0.00000
  39     85.78       30.0771        2.8136       75.8793       78.6929      48.615760       0.00000
  38     109.5       29.7022        3.5640       74.7539       78.3179      48.615760       0.00000
  37     133.1       29.3416        4.2704       73.6869       77.9573      48.615760      -0.00000
  36     156.8       28.9910        4.9431       72.6637       77.6068      48.615760       0.00000
  35     180.6       28.6188        5.6424       71.5922       77.2345      48.615760      -0.00000
  34     202.8       28.2606        6.3007       70.5757       76.8764      48.615760      -0.00000
  33     228.4       27.8956        6.9572       69.5542       76.5114      48.615760       0.00000
  32     252.2       27.5298        7.6007       68.5449       76.1456      48.615760      -0.00000
  31     276.0       27.1685        8.2224       67.5619       75.7843      48.615760       0.00000
  30     299.8       26.8045        8.8347       66.5855       75.4203      48.615760       0.00000
  29     323.5       26.4399        9.4344       65.6212       75.0556      48.615760       0.00000
  28     347.3       26.0785       10.0151       64.6791       74.6943      48.615760       0.00000
  27     371.1       25.7218       10.5754       63.7621       74.3376      48.615760      -0.00000
  26     394.9       25.3602       11.1305       62.8455       73.9759      48.615760      -0.00000
  25     418.6       24.9994       11.6712       61.9439       73.6152      48.615760      -0.00000
  24     442.4       24.6389       12.1989       61.0558       73.2547      48.615760       0.00000
  23     466.2       24.2776       12.7152       60.1781       72.8933      48.615760       0.00000
  22     489.9       23.9202       13.2136       59.3223       72.5360      48.615760       0.00000
  21     513.7       23.5607       13.7029       58.4735       72.1764      48.615760      -0.00000
  20     537.5       23.2044       14.1760       57.6441       71.8201      48.615760       0.00000
  19     561.3       22.8507       14.6340       56.8325       71.4665      48.615760      -0.00000
  18     585.0       22.4920       15.0870       56.0207       71.1077      48.615760       0.00000
  17     608.8       22.1366       15.5245       55.2278       70.7523      48.615760       0.00000
  16     632.6       21.7844       15.9470       54.4531       70.4001      48.615760       0.00000
  15     656.4       21.4281       16.3634       53.6804       70.0438      48.615760       0.00000
  14     680.1       21.0747       16.7656       52.9249       69.6905      48.615760      -0.00000
  13     703.9       20.7242       17.1541       52.1859       69.3400      48.615760       0.00000
  12     727.7       20.3712       17.5349       51.4520       68.9869      48.615760      -0.00000
  11     751.5       20.0156       17.9081       50.7232       68.6313      48.615760      -0.00000
  10     775.2       19.6617       18.2693       50.0082       68.2775      48.615760       0.00000
   9     799.0       19.3095       18.6186       49.3067       67.9253      48.615760       0.00000
   8     822.8       15.4977       46.4465       17.6670       64.1135      48.615760      -0.00000
   7     846.6       11.7894       54.0748        6.3303       60.4051      48.615760      -0.00000
   6     870.4        8.1620       54.5091        2.2687       56.7777      48.615760       0.00000
   5     894.1        4.5970       52.3996        0.8132       53.2127      48.615760      -0.00000
   4     917.9        4.2596       52.0736        0.8017       52.8753      48.615760       0.00000
   3     941.7        3.9213       51.7467        0.7904       52.5371      48.615760       0.00000
   2     965.5        3.5848       51.4212        0.7794       52.2006      48.615760       0.00000
   1     989.2        3.2499       51.0972        0.7685       51.8657      48.615760      -0.00000
   0    1013.0        2.9167       50.7747        0.7578       51.5325      48.615760      -0.00000



 Wavenumbers: 29000. - 38000. cm-1, ATM      1
 LEVEL PRESSURE   UPWARD FLUX   DIFDOWN FLUX  DIRDOWN FLUX  DOWNWARD FLUX   NET FLUX    HEATING RATE
          mb          W/m2          W/m2          W/m2        W/m2          W/m2       degree/day
  60   .000300        6.2888        0.0000       28.2225       28.2225      21.933668       0.00000
  59    0.1000        6.2870        0.0028       28.1859       28.1886      21.901646       2.71045
  58    0.1403        6.2863        0.0039       28.1585       28.1624      21.876084       5.35289
  57    0.1968        6.2854        0.0054       28.1101       28.1156      21.830149       6.86119
  56    0.2760        6.2843        0.0076       28.0271       28.0347      21.750419       8.49558
  55    0.3871        6.2828        0.0106       27.8913       27.9019      21.619123       9.97321
  54    0.5430        6.2809        0.0146       27.6738       27.6884      21.407493      11.45593
  53    0.7617        6.2788        0.0201       27.3185       27.3386      21.059830      13.41556
  52     1.069        6.2766        0.0273       26.7574       26.7847      20.508055      15.17765
  51     1.499        6.2751        0.0365       25.9466       25.9831      19.708054      15.68982
  50     2.102        6.2756        0.0481       24.8886       24.9367      18.661048      14.63856
  49     2.949        6.2810        0.0632       23.6539       23.7171      17.436068      12.21095
  48     4.137        6.2947        0.0830       22.3800       22.4629      16.168258       9.00912
  47     5.803        6.3186        0.1091       21.1533       21.2624      14.943826       6.20275
  46     8.139        6.3524        0.1444       20.0304       20.1748      13.822356       4.05027
  45     11.42        6.3945        0.1920       19.0179       19.2099      12.815411       2.59252
  44     16.01        6.4449        0.2562       18.0801       18.3363      11.891369       1.69609
  43     22.46        6.5047        0.3431       17.1858       17.5289      11.024208       1.13471
  42     31.51        6.5665        0.4611       16.3448       16.8059      10.239425       0.73210
  41     44.20        6.6119        0.6230       15.5663       16.1894       9.577515       0.44020
  40     62.00        6.6288        0.8427       14.8065       15.6492       9.020329       0.26417
  39     85.78        6.5849        1.1283       14.0925       15.2209       8.635988       0.13643
  38     109.5        6.5016        1.4100       13.5167       14.9267       8.425084       0.07486
  37     133.1        6.4133        1.6684       13.0134       14.6818       8.268555       0.05621
  36     156.8        6.3237        1.9082       12.5564       14.4646       8.140888       0.04527
  35     180.6        6.2223        2.1527       12.1053       14.2580       8.035730       0.03733
  34     202.8        6.1180        2.3791       11.7016       14.0806       7.962622       0.02776
  33     228.4        6.0087        2.6000       11.3112       13.9112       7.902526       0.01983
  32     252.2        5.8975        2.8116       10.9372       13.7488       7.851362       0.01816
  31     276.0        5.7858        3.0115       10.5839       13.5954       7.809576       0.01483
  30     299.8        5.6721        3.2040       10.2424       13.4465       7.774423       0.01248
  29     323.5        5.5577        3.3877        9.9126       13.3004       7.742704       0.01126
  28     347.3        5.4441        3.5610        9.5973       13.1582       7.714116       0.01015
  27     371.1        5.3317        3.7237        9.2967       13.0204       7.688638       0.00904
  26     394.9        5.2176        3.8806        9.0022       12.8828       7.665132       0.00834
  25     418.6        5.1038        4.0290        8.7182       12.7472       7.643445       0.00770
  24     442.4        4.9899        4.1696        8.4437       12.6133       7.623376       0.00712
  23     466.2        4.8758        4.3031        8.1775       12.4807       7.604868       0.00657
  22     489.9        4.7629        4.4280        7.9229       12.3508       7.587993       0.00599
  21     513.7        4.6492        4.5466        7.6749       12.2214       7.572200       0.00561
  20     537.5        4.5367        4.6574        7.4369       12.0942       7.557482       0.00522
  19     561.3        4.4251        4.7608        7.2080       11.9688       7.543720       0.00488
  18     585.0        4.3120        4.8594        6.9831       11.8425       7.530503       0.00469
  17     608.8        4.2000        4.9509        6.7672       11.7180       7.518062       0.00442
  16     632.6        4.0891        5.0356        6.5598       11.5954       7.506333       0.00416
  15     656.4        3.9770        5.1155        6.3565       11.4720       7.495039       0.00401
  14     680.1        3.8659        5.1892        6.1611       11.3503       7.484365       0.00379
  13     703.9        3.7558        5.2569        5.9732       11.2301       7.474267       0.00358
  12     727.7        3.6450        5.3199        5.7897       11.1096       7.464563       0.00344
  11     751.5        3.5335        5.3782        5.6105       10.9887       7.455247       0.00331
  10     775.2        3.4226        5.4312        5.4377       10.8690       7.446409       0.00314
   9     799.0        3.3123        5.4792        5.2710       10.7503       7.438022       0.00298
   8     822.8        2.6919        8.2543        1.8676       10.1219       7.430024       0.00284
   7     846.6        2.0840        8.8451        0.6618        9.5068       7.422841       0.00255
   6     870.4        1.4860        8.6680        0.2345        8.9025       7.416485       0.00226
   5     894.1        0.8957        8.2235        0.0831        8.3066       7.410923       0.00197
   4     917.9        0.7876        8.1130        0.0805        8.1936       7.405915       0.00178
   3     941.7        0.6794        8.0024        0.0780        8.0805       7.401121       0.00170
   2     965.5        0.5716        7.8926        0.0756        7.9682       7.396572       0.00161
   1     989.2        0.4645        7.7834        0.0733        7.8567       7.392254       0.00153
   0    1013.0        0.3579        7.6749        0.0711        7.7460       7.388155       0.00146



 Wavenumbers: 38000. - 50000. cm-1, ATM      1
 LEVEL PRESSURE   UPWARD FLUX   DIFDOWN FLUX  DIRDOWN FLUX  DOWNWARD FLUX   NET FLUX    HEATING RATE
          mb          W/m2          W/m2          W/m2        W/m2          W/m2       degree/day
  60   .000300        0.0069        0.0000        1.7407        1.7407       1.733864       0.00000
  59    0.1000        0.0063        0.0006        1.7198        1.7204       1.714069       1.67562
  58    0.1403        0.0061        0.0008        1.7047        1.7056       1.699408       3.07012
  57    0.1968        0.0059        0.0012        1.6784        1.6796       1.673683       3.84232
  56    0.2760        0.0056        0.0016        1.6341        1.6357       1.630132       4.64062
  55    0.3871        0.0051        0.0021        1.5634        1.5655       1.560405       5.29648
  54    0.5430        0.0046        0.0028        1.4543        1.4571       1.452495       5.84133
  53    0.7617        0.0039        0.0034        1.2861        1.2895       1.285598       6.44019
  52     1.069        0.0031        0.0037        1.0457        1.0495       1.046342       6.58121
  51     1.499        0.0024        0.0037        0.7523        0.7559       0.753565       5.74202
  50     2.102        0.0017        0.0031        0.4664        0.4695       0.467843       3.99478
  49     2.949        0.0012        0.0024        0.2581        0.2604       0.259286       2.07895
  48     4.137        0.0008        0.0017        0.1381        0.1398       0.139011       0.85468
  47     5.803        0.0005        0.0013        0.0728        0.0741       0.073572       0.33150
  46     8.139        0.0003        0.0009        0.0388        0.0397       0.039349       0.12360
  45     11.42        0.0002        0.0006        0.0198        0.0204       0.020194       0.04932
  44     16.01        0.0001        0.0004        0.0090        0.0093       0.009236       0.02011
  43     22.46        0.0000        0.0002        0.0034        0.0036       0.003591       0.00739
  42     31.51        0.0000        0.0001        0.0011        0.0012       0.001179       0.00225
  41     44.20        0.0000        0.0000        0.0003        0.0003       0.000327       0.00057
  40     62.00        0.0000        0.0000        0.0001        0.0001       0.000070       0.00012
  39     85.78        0.0000        0.0000        0.0000        0.0000       0.000012       0.00002
  38     109.5        0.0000        0.0000        0.0000        0.0000       0.000002       0.00000
  37     133.1        0.0000        0.0000        0.0000        0.0000       0.000000       0.00000
  36     156.8        0.0000        0.0000        0.0000        0.0000       0.000000       0.00000
  35     180.6        0.0000        0.0000        0.0000        0.0000       0.000000       0.00000
  34     202.8        0.0000        0.0000        0.0000        0.0000       0.000000       0.00000
  33     228.4        0.0000        0.0000        0.0000        0.0000       0.000000       0.00000
  32     252.2        0.0000        0.0000        0.0000        0.0000       0.000000       0.00000
  31     276.0        0.0000        0.0000        0.0000        0.0000       0.000000       0.00000
  30     299.8        0.0000        0.0000        0.0000        0.0000       0.000000       0.00000
  29     323.5        0.0000        0.0000        0.0000        0.0000       0.000000       0.00000
  28     347.3        0.0000        0.0000        0.0000        0.0000       0.000000       0.00000
  27     371.1        0.0000        0.0000        0.0000        0.0000       0.000000       0.00000
  26     394.9        0.0000        0.0000        0.0000        0.0000       0.000000       0.00000
  25     418.6        0.0000        0.0000        0.0000        0.0000       0.000000       0.00000
  24     442.4        0.0000        0.0000        0.0000        0.0000       0.000000       0.00000
  23     466.2        0.0000        0.0000        0.0000        0.0000       0.000000       0.00000
  22     489.9        0.0000        0.0000        0.0000        0.0000       0.000000       0.00000
  21     513.7        0.0000        0.0000        0.0000        0.0000       0.000000       0.00000
  20     537.5        0.0000        0.0000        0.0000        0.0000       0.000000       0.00000
  19     561.3        0.0000        0.0000        0.0000        0.0000       0.000000       0.00000
  18     585.0        0.0000        0.0000        0.0000        0.0000       0.000000       0.00000
  17     608.8        0.0000        0.0000        0.0000        0.0000       0.000000       0.00000
  16     632.6        0.0000        0.0000        0.0000        0.0000       0.000000       0.00000
  15     656.4        0.0000        0.0000        0.0000        0.0000       0.000000       0.00000
  14     680.1        0.0000        0.0000        0.0000        0.0000       0.000000       0.00000
  13     703.9        0.0000        0.0000        0.0000        0.0000       0.000000       0.00000
  12     727.7        0.0000        0.0000        0.0000        0.0000       0.000000       0.00000
  11     751.5        0.0000        0.0000        0.0000        0.0000       0.000000       0.00000
  10     775.2        0.0000        0.0000        0.0000        0.0000       0.000000       0.00000
   9     799.0        0.0000        0.0000        0.0000        0.0000       0.000000       0.00000
   8     822.8        0.0000        0.0000        0.0000        0.0000       0.000000       0.00000
   7     846.6        0.0000        0.0000        0.0000        0.0000       0.000000       0.00000
   6     870.4        0.0000        0.0000        0.0000        0.0000       0.000000       0.00000
   5     894.1        0.0000        0.0000        0.0000        0.0000       0.000000       0.00000
   4     917.9        0.0000        0.0000        0.0000        0.0000       0.000000       0.00000
   3     941.7        0.0000        0.0000        0.0000        0.0000       0.000000       0.00000
   2     965.5        0.0000        0.0000        0.0000        0.0000       0.000000       0.00000
   1     989.2        0.0000        0.0000        0.0000        0.0000       0.000000       0.00000
   0    1013.0        0.0000        0.0000        0.0000        0.0000       0.000000       0.00000



 Wavenumbers:   820. -  2600. cm-1, ATM      1
 LEVEL PRESSURE   UPWARD FLUX   DIFDOWN FLUX  DIRDOWN FLUX  DOWNWARD FLUX   NET FLUX    HEATING RATE
          mb          W/m2          W/m2          W/m2        W/m2          W/m2       degree/day
  60   .000300        0.1745        0.0000        8.1430        8.1430       7.968495       0.00000
  59    0.1000        0.1745        0.0000        8.1331        8.1331       7.958609       0.83685
  58    0.1403        0.1745        0.0000        8.1309        8.1309       7.956470       0.44784
  57    0.1968        0.1745        0.0000        8.1281        8.1281       7.953630       0.42419
  56    0.2760        0.1745        0.0000        8.1245        8.1245       7.950063       0.38009
  55    0.3871        0.1745        0.0000        8.1201        8.1201       7.945602       0.33884
  54    0.5430        0.1745        0.0000        8.1143        8.1143       7.939846       0.31157
  53    0.7617        0.1745        0.0000        8.1063        8.1063       7.931861       0.30815
  52     1.069        0.1745        0.0000        8.0951        8.0951       7.920613       0.30939
  51     1.499        0.1745        0.0000        8.0799        8.0799       7.905424       0.29789
  50     2.102        0.1745        0.0000        8.0595        8.0595       7.885013       0.28537
  49     2.949        0.1745        0.0000        8.0314        8.0314       7.856875       0.28049
  48     4.137        0.1745        0.0000        7.9935        7.9935       7.819029       0.26894
  47     5.803        0.1745        0.0000        7.9444        7.9444       7.769908       0.24884
  46     8.139        0.1745        0.0000        7.8811        7.8811       7.706631       0.22853
  45     11.42        0.1745        0.0000        7.8004        7.8004       7.625908       0.20783
  44     16.01        0.1745        0.0000        7.7070        7.7070       7.532553       0.17135
  43     22.46        0.1745        0.0000        7.6181        7.6181       7.443581       0.11642
  42     31.51        0.1745        0.0000        7.5468        7.5468       7.372307       0.06649
  41     44.20        0.1745        0.0000        7.4816        7.4816       7.307114       0.04336
  40     62.00        0.1745        0.0000        7.3998        7.3998       7.225291       0.03879
  39     85.78        0.1746        0.0000        7.2958        7.2958       7.121247       0.03693
  38     109.5        0.1746        0.0000        7.1946        7.1946       7.020045       0.03592
  37     133.1        0.1746        0.0000        7.1003        7.1003       6.925655       0.03390
  36     156.8        0.1746        0.0000        7.0126        7.0126       6.837990       0.03109
  35     180.6        0.1747        0.0000        6.9166        6.9166       6.741908       0.03411
  34     202.8        0.1747        0.0000        6.8041        6.8042       6.629442       0.04270
  33     228.4        0.1748        0.0000        6.6630        6.6630       6.488236       0.04659
  32     252.2        0.1749        0.0000        6.4917        6.4917       6.316832       0.06084
  31     276.0        0.1749        0.0000        6.3090        6.3091       6.134131       0.06485
  30     299.8        0.1751        0.0000        6.1153        6.1153       5.940242       0.06882
  29     323.5        0.1752        0.0000        5.9197        5.9197       5.744466       0.06949
  28     347.3        0.1755        0.0000        5.7036        5.7036       5.528103       0.07680
  27     371.1        0.1758        0.0000        5.4648        5.4649       5.289084       0.08484
  26     394.9        0.1761        0.0000        5.2059        5.2060       5.029854       0.09202
  25     418.6        0.1765        0.0000        4.9521        4.9521       4.775566       0.09026
  24     442.4        0.1770        0.0000        4.7233        4.7233       4.546337       0.08137
  23     466.2        0.1775        0.0000        4.5370        4.5370       4.359470       0.06633
  22     489.9        0.1782        0.0000        4.3924        4.3925       4.214318       0.05152
  21     513.7        0.1789        0.0000        4.2764        4.2764       4.097538       0.04145
  20     537.5        0.1798        0.0000        4.1775        4.1776       3.997801       0.03540
  19     561.3        0.1808        0.0000        4.0839        4.0840       3.903211       0.03358
  18     585.0        0.1820        0.0000        3.9882        3.9883       3.806312       0.03440
  17     608.8        0.1834        0.0000        3.8907        3.8907       3.707382       0.03512
  16     632.6        0.1850        0.0000        3.7911        3.7912       3.606208       0.03591
  15     656.4        0.1869        0.0000        3.6867        3.6868       3.499891       0.03774
  14     680.1        0.1892        0.0000        3.5795        3.5795       3.390333       0.03889
  13     703.9        0.1920        0.0000        3.4709        3.4710       3.278984       0.03952
  12     727.7        0.1955        0.0000        3.3598        3.3599       3.164370       0.04068
  11     751.5        0.2001        0.0000        3.2443        3.2443       3.044256       0.04264
  10     775.2        0.2061        0.0000        3.1256        3.1256       2.919539       0.04427
   9     799.0        0.2141        0.0000        3.0033        3.0033       2.789198       0.04627
   8     822.8        0.1323        1.0979        0.8527        1.9506       1.818323       0.34462
   7     846.6        0.0782        1.0121        0.2422        1.2543       1.176079       0.22797
   6     870.4        0.0408        0.7306        0.0688        0.7994       0.758535       0.14821
   5     894.1        0.0121        0.4854        0.0195        0.5049       0.492838       0.09431
   4     917.9        0.0126        0.4618        0.0186        0.4804       0.467826       0.00888
   3     941.7        0.0131        0.4381        0.0178        0.4559       0.442707       0.00892
   2     965.5        0.0138        0.4145        0.0169        0.4314       0.417549       0.00893
   1     989.2        0.0146        0.3911        0.0160        0.4071       0.392421       0.00892
   0    1013.0        0.0156        0.3679        0.0151        0.3830       0.367419       0.00888

  Modules and versions used in this calculation:

       rrtmg_sw.1col.f90:  $Revision$                    rrtmg_sw_init.f90:  $Revision$        
     rrtmgsw_cldprop.f90:  $Revision$                  rrtmgsw_cldprmc.f90:  NOT USED          
     rrtmg_sw_reftra.f90:  $Revision$                  rrtmg_sw_spcvrt.f90:  NOT USED          
     rrtmg_sw_spcvmc.f90:  NOT USED                    rrtmgsw_setcoef.f90:  NOT USED          
     rrtmg_sw_taumol.f90:  $Revision$                  rrtmg_sw_vrtqdr.f90:  NOT USED          
                rrtatm.f:  NOT USED                             util_xxx.f:  NOT USED          
                 extra.f:  NOT USED                       rrtmg_sw_k_g.f90:  $Revision$        

