

 Wavenumbers:   820. - 50000. cm-1, ATM      1
 LEVEL PRESSURE   UPWARD FLUX   DIFDOWN FLUX  DIRDOWN FLUX  DOWNWARD FLUX   NET FLUX    HEATING RATE
          mb          W/m2          W/m2          W/m2        W/m2          W/m2       degree/day
  59    0.1000      587.4065        0.0000     1360.8491     1360.8491     773.442675       0.00000
  58    0.1400      587.4061        0.0053     1360.7700     1360.7753     773.369200      15.50183
  57    0.1970      587.4060        0.0129     1360.6656     1360.6784     773.272434      14.32667
  56    0.2760      587.4065        0.0233     1360.4973     1360.5206     773.114057      16.91855
  55    0.3870      587.4086        0.0378     1360.2162     1360.2540     772.845341      20.43005
  54    0.5430      587.4139        0.0579     1359.7485     1359.8064     772.392516      24.49648
  53    0.7620      587.4248        0.0860     1359.0015     1359.0875     771.662707      28.12314
  52     1.070      587.4456        0.1235     1357.8888     1358.0122     770.566633      30.03222
  51     1.500      587.4882        0.1753     1356.1988     1356.3741     768.885830      32.98732
  50     2.100      587.5630        0.2460     1354.0972     1354.3432     766.780219      29.61593
  49     2.950      587.6830        0.3445     1351.8433     1352.1878     764.504798      22.59130
  48     4.130      587.8594        0.4818     1349.6358     1350.1175     762.258104      16.06794
  47     5.800      588.1042        0.6730     1347.4520     1348.1250     760.020836      11.30577
  46     8.130      588.4325        0.9398     1345.1751     1346.1149     757.682367       8.46982
  45     11.41      588.8605        1.3118     1342.7079     1344.0197     755.159199       6.49189
  44     16.01      589.4129        1.8292     1339.9281     1341.7573     752.344391       5.16404
  43     22.46      590.1539        2.5476     1336.6282     1339.1758     749.021953       4.34706
  42     31.51      591.1656        3.5431     1332.6189     1336.1620     744.996388       3.75385
  41     44.20      592.4759        4.9248     1327.8040     1332.7288     740.252910       3.15452
  40     62.00      594.0119        6.8422     1322.1310     1328.9732     734.961312       2.50880
  39     85.77      595.2759        9.3878     1316.0883     1325.4761     730.200218       1.69035
  38     109.5      596.0542       11.9194     1310.8699     1322.7893     726.735133       1.23022
  37     133.3      596.5295       14.4184     1306.1391     1320.5575     724.028029       0.96071
  36     157.1      596.7822       16.9058     1301.7285     1318.6343     721.852058       0.77222
  35     180.9      596.8524       19.3729     1297.5383     1316.9113     720.058849       0.63665
  34     204.7      596.8524       21.8049     1293.4065     1315.2114     718.358996       0.60325
  33     228.4      596.8261       24.2174     1289.2005     1313.4179     716.591868       0.62739
  32     252.2      596.7747       26.6013     1284.8824     1311.4836     714.708915       0.66823
  31     276.0      596.6840       28.9623     1280.5653     1309.5275     712.843561       0.66226
  30     299.8      596.5537       31.2978     1276.2839     1307.5817     711.028033       0.64430
  29     323.5      596.3791       33.6003     1272.1283     1305.7286     709.349572       0.59591
  28     347.3      596.1773       35.8980     1267.8782     1303.7762     707.598948       0.62153
  27     371.1      595.9767       38.1577     1263.0375     1301.1951     705.218390       0.84482
  26     394.9      595.7886       40.3919     1257.3469     1297.7388     701.950128       1.15985
  25     418.6      595.6055       42.6172     1251.3901     1294.0074     698.401835       1.25976
  24     442.4      595.4318       44.7928     1245.4620     1290.2548     694.823092       1.27057
  23     466.2      595.2709       46.9714     1239.3762     1286.3475     691.076683       1.32954
  22     489.9      595.1366       49.1120     1233.1568     1282.2688     687.132141       1.39986
  21     513.7      595.0360       51.2098     1226.8116     1278.0213     682.985325       1.47226
  20     537.5      594.9751       53.3172     1220.1629     1273.4801     678.504986       1.59000
  19     561.3      594.9651       55.3868     1213.3419     1268.7287     673.763567       1.68336
  18     585.0      595.0160       57.4128     1206.3658     1263.7785     668.762460       1.77556
  17     608.8      595.1381       59.4383     1199.1415     1258.5798     663.441639       1.88828
  16     632.6      595.3253       61.4418     1191.9457     1253.3875     658.062158       1.90909
  15     656.4      595.5848       63.4156     1184.8126     1248.2283     652.643497       1.92381
  14     680.1      595.9260       65.3553     1177.7612     1243.1165     647.190504       1.93600
  13     703.9      596.3502       67.2924     1170.7810     1238.0735     641.723267       1.94024
  12     727.7      596.8458       69.1989     1164.0452     1233.2442     636.398390       1.88971
  11     751.5      597.4236       71.0827     1157.4888     1228.5716     631.147969       1.86408
  10     775.2      598.0906       72.9371     1151.1183     1224.0554     625.964819       1.83942
   9     799.0      598.8606       74.7863     1144.8574     1219.6437     620.783049       1.83970
   8     822.8      599.7263       76.6080     1138.7985     1215.4065     615.680193       1.81092
   7     846.6      600.7023       78.4081     1132.9030     1211.3111     610.608848       1.80050
   6     870.4      601.8018       80.1838     1127.1604     1207.3442     605.542343       1.79802
   5     894.1      603.0406       81.9335     1121.5673     1203.5009     600.460277       1.80430
   4     917.9      604.3964       83.6773     1116.1582     1199.8355     595.439076       1.78269
   3     941.7      605.8572       85.4019     1110.9747     1196.3766     590.519384       1.74592
   2     965.5      607.4317       87.1097     1105.9959     1193.1056     585.673887       1.71959
   1     989.2      609.1497       88.7986     1101.1905     1189.9890     580.839318       1.71571
   0    1013.0      611.0312       90.4756     1096.5367     1187.0122     575.981026       1.72486



 Wavenumbers:  2600. -  3250. cm-1, ATM      1
 LEVEL PRESSURE   UPWARD FLUX   DIFDOWN FLUX  DIRDOWN FLUX  DOWNWARD FLUX   NET FLUX    HEATING RATE
          mb          W/m2          W/m2          W/m2        W/m2          W/m2       degree/day
  59    0.1000        3.4559        0.0000       11.9937       11.9937       8.537819       0.00000
  58    0.1400        3.4559        0.0000       11.9937       11.9937       8.537790       0.00613
  57    0.1970        3.4559        0.0000       11.9936       11.9936       8.537749       0.00614
  56    0.2760        3.4559        0.0000       11.9936       11.9936       8.537689       0.00633
  55    0.3870        3.4559        0.0000       11.9935       11.9935       8.537601       0.00668
  54    0.5430        3.4559        0.0000       11.9934       11.9934       8.537463       0.00746
  53    0.7620        3.4559        0.0000       11.9931       11.9931       8.537234       0.00883
  52     1.070        3.4559        0.0000       11.9927       11.9927       8.536850       0.01054
  51     1.500        3.4559        0.0000       11.9921       11.9921       8.536183       0.01309
  50     2.100        3.4559        0.0000       11.9910       11.9910       8.535065       0.01572
  49     2.950        3.4559        0.0000       11.9891       11.9891       8.533244       0.01808
  48     4.130        3.4559        0.0000       11.9863       11.9863       8.530431       0.02011
  47     5.800        3.4559        0.0000       11.9822       11.9822       8.526293       0.02091
  46     8.130        3.4559        0.0000       11.9764       11.9764       8.520482       0.02105
  45     11.41        3.4559        0.0000       11.9686       11.9686       8.512692       0.02004
  44     16.01        3.4559        0.0000       11.9587       11.9587       8.502804       0.01814
  43     22.46        3.4560        0.0000       11.9469       11.9469       8.490921       0.01555
  42     31.51        3.4560        0.0000       11.9326       11.9326       8.476560       0.01339
  41     44.20        3.4562        0.0000       11.9144       11.9144       8.458213       0.01220
  40     62.00        3.4564        0.0000       11.8882       11.8882       8.431787       0.01253
  39     85.77        3.4569        0.0000       11.8479       11.8480       8.391050       0.01446
  38     109.5        3.4576        0.0001       11.8004       11.8005       8.342847       0.01711
  37     133.3        3.4585        0.0001       11.7500       11.7501       8.291599       0.01819
  36     157.1        3.4595        0.0001       11.6981       11.6982       8.238744       0.01876
  35     180.9        3.4606        0.0001       11.6460       11.6461       8.185511       0.01890
  34     204.7        3.4619        0.0001       11.5944       11.5945       8.132623       0.01877
  33     228.4        3.4635        0.0001       11.5432       11.5433       8.079882       0.01873
  32     252.2        3.4653        0.0001       11.4924       11.4926       8.027285       0.01867
  31     276.0        3.4674        0.0001       11.4428       11.4430       7.975571       0.01836
  30     299.8        3.4698        0.0002       11.3949       11.3951       7.925242       0.01786
  29     323.5        3.4724        0.0002       11.3497       11.3498       7.877423       0.01698
  28     347.3        3.4754        0.0002       11.3050       11.3051       7.829714       0.01694
  27     371.1        3.4794        0.0002       11.2558       11.2560       7.776586       0.01885
  26     394.9        3.4846        0.0002       11.1996       11.1998       7.715198       0.02179
  25     418.6        3.4907        0.0002       11.1410       11.1413       7.650517       0.02296
  24     442.4        3.4976        0.0002       11.0819       11.0822       7.584589       0.02341
  23     466.2        3.5055        0.0002       11.0197       11.0199       7.514428       0.02490
  22     489.9        3.5146        0.0002       10.9543       10.9545       7.439960       0.02643
  21     513.7        3.5249        0.0002       10.8847       10.8849       7.359974       0.02840
  20     537.5        3.5371        0.0003       10.8081       10.8083       7.271193       0.03151
  19     561.3        3.5512        0.0003       10.7252       10.7254       7.174268       0.03441
  18     585.0        3.5673        0.0003       10.6351       10.6353       7.068009       0.03773
  17     608.8        3.5861        0.0003       10.5360       10.5363       6.950155       0.04182
  16     632.6        3.6071        0.0003       10.4314       10.4317       6.824562       0.04457
  15     656.4        3.6305        0.0003       10.3217       10.3220       6.691454       0.04726
  14     680.1        3.6566        0.0003       10.2071       10.2074       6.550796       0.04994
  13     703.9        3.6856        0.0003       10.0880       10.0883       6.402702       0.05256
  12     727.7        3.7170        0.0003        9.9686        9.9689       6.251977       0.05349
  11     751.5        3.7510        0.0003        9.8489        9.8492       6.098195       0.05460
  10     775.2        3.7878        0.0003        9.7297        9.7300       5.942229       0.05535
   9     799.0        3.8280        0.0003        9.6105        9.6109       5.782809       0.05660
   8     822.8        3.8713        0.0003        9.4940        9.4943       5.623028       0.05670
   7     846.6        3.9181        0.0004        9.3798        9.3802       5.462052       0.05715
   6     870.4        3.9689        0.0004        9.2682        9.2686       5.299662       0.05763
   5     894.1        4.0242        0.0004        9.1595        9.1599       5.135666       0.05822
   4     917.9        4.0836        0.0004        9.0552        9.0556       4.971912       0.05814
   3     941.7        4.1470        0.0004        8.9568        8.9572       4.810214       0.05738
   2     965.5        4.2145        0.0004        8.8639        8.8643       4.649737       0.05695
   1     989.2        4.2873        0.0004        8.7757        8.7761       4.488746       0.05713
   0    1013.0        4.3661        0.0004        8.6919        8.6923       4.326156       0.05772



 Wavenumbers:  3250. -  4000. cm-1, ATM      1
 LEVEL PRESSURE   UPWARD FLUX   DIFDOWN FLUX  DIRDOWN FLUX  DOWNWARD FLUX   NET FLUX    HEATING RATE
          mb          W/m2          W/m2          W/m2        W/m2          W/m2       degree/day
  59    0.1000        0.7444        0.0000       20.2197       20.2197      19.475282       0.00000
  58    0.1400        0.7444        0.0000       20.2044       20.2044      19.460052       3.21320
  57    0.1970        0.7444        0.0000       20.1937       20.1937      19.449347       1.58506
  56    0.2760        0.7444        0.0000       20.1841       20.1841      19.439732       1.02710
  55    0.3870        0.7444        0.0000       20.1739       20.1739      19.429568       0.77273
  54    0.5430        0.7444        0.0000       20.1632       20.1632      19.418824       0.58121
  53    0.7620        0.7444        0.0000       20.1518       20.1518      19.407412       0.43976
  52     1.070        0.7444        0.0000       20.1397       20.1397      19.395283       0.33233
  51     1.500        0.7444        0.0000       20.1251       20.1251      19.380762       0.28500
  50     2.100        0.7444        0.0000       20.1072       20.1072      19.362863       0.25174
  49     2.950        0.7444        0.0000       20.0845       20.0845      19.340168       0.22533
  48     4.130        0.7444        0.0000       20.0557       20.0557      19.311293       0.20651
  47     5.800        0.7444        0.0000       20.0186       20.0186      19.274212       0.18738
  46     8.130        0.7444        0.0000       19.9695       19.9695      19.225168       0.17764
  45     11.41        0.7444        0.0000       19.9014       19.9015      19.157093       0.17515
  44     16.01        0.7444        0.0000       19.8019       19.8019      19.057526       0.18267
  43     22.46        0.7443        0.0000       19.6535       19.6535      18.909186       0.19409
  42     31.51        0.7443        0.0000       19.4354       19.4354      18.691107       0.20336
  41     44.20        0.7443        0.0001       19.1347       19.1348      18.390453       0.19994
  40     62.00        0.7443        0.0001       18.7612       18.7613      18.017027       0.17704
  39     85.77        0.7443        0.0001       18.3477       18.3478      17.603490       0.14682
  38     109.5        0.7443        0.0001       17.9632       17.9633      17.219046       0.13649
  37     133.3        0.7443        0.0002       17.6005       17.6007      16.856414       0.12869
  36     157.1        0.7443        0.0002       17.2513       17.2515      16.507195       0.12393
  35     180.9        0.7443        0.0002       16.9036       16.9039      16.159594       0.12341
  34     204.7        0.7443        0.0003       16.5410       16.5413      15.796976       0.12869
  33     228.4        0.7444        0.0003       16.1412       16.1415      15.397159       0.14195
  32     252.2        0.7445        0.0003       15.6954       15.6957      14.951262       0.15824
  31     276.0        0.7446        0.0003       15.2546       15.2550      14.510312       0.15655
  30     299.8        0.7449        0.0003       14.8282       14.8286      14.083706       0.15140
  29     323.5        0.7451        0.0003       14.4370       14.4374      13.692247       0.13898
  28     347.3        0.7455        0.0004       14.0406       14.0410      13.295552       0.14084
  27     371.1        0.7461        0.0004       13.5432       13.5436      12.797482       0.17676
  26     394.9        0.7473        0.0004       12.9292       12.9296      12.182217       0.21835
  25     418.6        0.7490        0.0004       12.3153       12.3156      11.566607       0.21856
  24     442.4        0.7511        0.0004       11.7330       11.7334      10.982257       0.20746
  23     466.2        0.7538        0.0004       11.1535       11.1538      10.400022       0.20663
  22     489.9        0.7573        0.0004       10.5687       10.5691       9.811754       0.20877
  21     513.7        0.7618        0.0004        9.9833        9.9837       9.221927       0.20941
  20     537.5        0.7676        0.0004        9.3938        9.3941       8.626578       0.21128
  19     561.3        0.7749        0.0003        8.8191        8.8195       8.044530       0.20665
  18     585.0        0.7842        0.0003        8.2685        8.2688       7.484605       0.19879
  17     608.8        0.7960        0.0003        7.7400        7.7404       6.944404       0.19171
  16     632.6        0.8100        0.0003        7.2613        7.2616       6.451587       0.17489
  15     656.4        0.8267        0.0003        6.8268        6.8271       6.000387       0.16019
  14     680.1        0.8464        0.0003        6.4282        6.4285       5.582046       0.14853
  13     703.9        0.8696        0.0003        6.0622        6.0625       5.192924       0.13809
  12     727.7        0.8958        0.0003        5.7336        5.7339       4.838078       0.12593
  11     751.5        0.9257        0.0003        5.4331        5.4334       4.507770       0.11727
  10     775.2        0.9597        0.0003        5.1570        5.1573       4.197597       0.11008
   9     799.0        0.9988        0.0003        4.8998        4.9001       3.901305       0.10519
   8     822.8        1.0430        0.0003        4.6636        4.6638       3.620832       0.09954
   7     846.6        1.0932        0.0003        4.4446        4.4449       3.351708       0.09555
   6     870.4        1.1504        0.0003        4.2408        4.2410       3.090604       0.09266
   5     894.1        1.2159        0.0003        4.0505        4.0507       2.834833       0.09081
   4     917.9        1.2891        0.0002        3.8764        3.8766       2.587537       0.08780
   3     941.7        1.3697        0.0002        3.7183        3.7185       2.348808       0.08472
   2     965.5        1.4585        0.0002        3.5747        3.5749       2.116418       0.08247
   1     989.2        1.5573        0.0002        3.4425        3.4428       1.885457       0.08196
   0    1013.0        1.6681        0.0002        3.3208        3.3210       1.652871       0.08258



 Wavenumbers:  4000. -  4650. cm-1, ATM      1
 LEVEL PRESSURE   UPWARD FLUX   DIFDOWN FLUX  DIRDOWN FLUX  DOWNWARD FLUX   NET FLUX    HEATING RATE
          mb          W/m2          W/m2          W/m2        W/m2          W/m2       degree/day
  59    0.1000        9.4313        0.0000       23.7440       23.7440      14.312724       0.00000
  58    0.1400        9.4313        0.0000       23.7440       23.7440      14.312720       0.00079
  57    0.1970        9.4313        0.0000       23.7440       23.7440      14.312715       0.00080
  56    0.2760        9.4313        0.0000       23.7440       23.7440      14.312707       0.00082
  55    0.3870        9.4313        0.0000       23.7440       23.7440      14.312696       0.00087
  54    0.5430        9.4313        0.0000       23.7439       23.7439      14.312678       0.00097
  53    0.7620        9.4313        0.0000       23.7439       23.7439      14.312648       0.00115
  52     1.070        9.4313        0.0000       23.7439       23.7439      14.312598       0.00138
  51     1.500        9.4313        0.0000       23.7438       23.7438      14.312510       0.00173
  50     2.100        9.4313        0.0000       23.7436       23.7436      14.312361       0.00210
  49     2.950        9.4313        0.0000       23.7434       23.7434      14.312112       0.00246
  48     4.130        9.4313        0.0000       23.7430       23.7430      14.311716       0.00284
  47     5.800        9.4313        0.0000       23.7424       23.7424      14.311101       0.00311
  46     8.130        9.4313        0.0000       23.7414       23.7415      14.310165       0.00339
  45     11.41        9.4313        0.0001       23.7400       23.7401      14.308757       0.00362
  44     16.01        9.4314        0.0001       23.7380       23.7380      14.306651       0.00386
  43     22.46        9.4315        0.0001       23.7349       23.7350      14.303512       0.00411
  42     31.51        9.4317        0.0002       23.7302       23.7304      14.298651       0.00453
  41     44.20        9.4322        0.0002       23.7228       23.7230      14.290871       0.00517
  40     62.00        9.4330        0.0003       23.7110       23.7113      14.278304       0.00596
  39     85.77        9.4347        0.0005       23.6934       23.6939      14.259206       0.00678
  38     109.5        9.4369        0.0006       23.6736       23.6743      14.237350       0.00776
  37     133.3        9.4396        0.0007       23.6533       23.6540      14.214481       0.00812
  36     157.1        9.4426        0.0009       23.6324       23.6333      14.190686       0.00844
  35     180.9        9.4460        0.0010       23.6110       23.6120      14.165950       0.00878
  34     204.7        9.4500        0.0011       23.5889       23.5900      14.140029       0.00920
  33     228.4        9.4544        0.0013       23.5656       23.5668      14.112463       0.00979
  32     252.2        9.4594        0.0014       23.5409       23.5423      14.082891       0.01049
  31     276.0        9.4649        0.0015       23.5150       23.5166      14.051671       0.01108
  30     299.8        9.4709        0.0017       23.4883       23.4900      14.019125       0.01155
  29     323.5        9.4772        0.0018       23.4614       23.4632      13.986065       0.01174
  28     347.3        9.4841        0.0019       23.4331       23.4350      13.950913       0.01248
  27     371.1        9.4923        0.0020       23.3997       23.4017      13.909460       0.01471
  26     394.9        9.5022        0.0022       23.3586       23.3607      13.858547       0.01807
  25     418.6        9.5135        0.0023       23.3132       23.3155      13.801983       0.02008
  24     442.4        9.5258        0.0024       23.2654       23.2679      13.742055       0.02128
  23     466.2        9.5396        0.0025       23.2135       23.2160      13.676420       0.02329
  22     489.9        9.5549        0.0027       23.1567       23.1594      13.604491       0.02553
  21     513.7        9.5720        0.0028       23.0946       23.0974      13.525325       0.02811
  20     537.5        9.5917        0.0029       23.0240       23.0270      13.435249       0.03197
  19     561.3        9.6133        0.0030       22.9455       22.9485      13.335252       0.03550
  18     585.0        9.6369        0.0031       22.8581       22.8613      13.224333       0.03938
  17     608.8        9.6636        0.0033       22.7601       22.7633      13.099766       0.04421
  16     632.6        9.6926        0.0034       22.6559       22.6593      12.966619       0.04725
  15     656.4        9.7243        0.0035       22.5464       22.5498      12.825517       0.05010
  14     680.1        9.7588        0.0036       22.4325       22.4361      12.677256       0.05264
  13     703.9        9.7966        0.0037       22.3155       22.3192      12.522596       0.05489
  12     727.7        9.8367        0.0038       22.1997       22.2035      12.366847       0.05527
  11     751.5        9.8796        0.0039       22.0850       22.0889      12.209375       0.05591
  10     775.2        9.9253        0.0040       21.9722       21.9762      12.050943       0.05623
   9     799.0        9.9745        0.0041       21.8604       21.8645      11.890013       0.05714
   8     822.8       10.0265        0.0042       21.7519       21.7561      11.729586       0.05693
   7     846.6       10.0817        0.0043       21.6461       21.6505      11.568729       0.05711
   6     870.4       10.1404        0.0044       21.5430       21.5475      11.407074       0.05737
   5     894.1       10.2027        0.0045       21.4426       21.4471      11.244360       0.05777
   4     917.9       10.2681        0.0046       21.3464       21.3511      11.083022       0.05728
   3     941.7       10.3356        0.0047       21.2554       21.2602      10.924613       0.05622
   2     965.5       10.4054        0.0048       21.1691       21.1739      10.768528       0.05539
   1     989.2       10.4782        0.0049       21.0864       21.0913      10.613188       0.05513
   0    1013.0       10.5543        0.0050       21.0070       21.0120      10.457694       0.05521



 Wavenumbers:  4650. -  5150. cm-1, ATM      1
 LEVEL PRESSURE   UPWARD FLUX   DIFDOWN FLUX  DIRDOWN FLUX  DOWNWARD FLUX   NET FLUX    HEATING RATE
          mb          W/m2          W/m2          W/m2        W/m2          W/m2       degree/day
  59    0.1000        6.8783        0.0000       22.4748       22.4748      15.596482       0.00000
  58    0.1400        6.8783        0.0000       22.4740       22.4740      15.595698       0.16542
  57    0.1970        6.8783        0.0000       22.4729       22.4729      15.594595       0.16328
  56    0.2760        6.8783        0.0000       22.4714       22.4714      15.593080       0.16185
  55    0.3870        6.8783        0.0000       22.4693       22.4693      15.590990       0.15895
  54    0.5430        6.8783        0.0000       22.4664       22.4664      15.588115       0.15552
  53    0.7620        6.8783        0.0000       22.4625       22.4625      15.584156       0.15255
  52     1.070        6.8783        0.0000       22.4573       22.4573      15.578988       0.14160
  51     1.500        6.8783        0.0000       22.4504       22.4504      15.572048       0.13620
  50     2.100        6.8783        0.0000       22.4415       22.4415      15.563173       0.12483
  49     2.950        6.8783        0.0000       22.4304       22.4304      15.552057       0.11036
  48     4.130        6.8783        0.0000       22.4170       22.4171      15.538734       0.09529
  47     5.800        6.8783        0.0000       22.4018       22.4019      15.523541       0.07677
  46     8.130        6.8784        0.0001       22.3853       22.3854      15.507015       0.05986
  45     11.41        6.8784        0.0001       22.3678       22.3679      15.489494       0.04508
  44     16.01        6.8785        0.0001       22.3486       22.3487      15.470189       0.03542
  43     22.46        6.8788        0.0002       22.3245       22.3247      15.445889       0.03179
  42     31.51        6.8792        0.0003       22.2887       22.2890      15.409751       0.03370
  41     44.20        6.8801        0.0004       22.2307       22.2311      15.351015       0.03906
  40     62.00        6.8817        0.0005       22.1365       22.1370      15.255269       0.04539
  39     85.77        6.8846        0.0007       21.9958       21.9965      15.111881       0.05091
  38     109.5        6.8884        0.0009       21.8485       21.8494      14.961000       0.05357
  37     133.3        6.8928        0.0010       21.7023       21.7033      14.810500       0.05341
  36     157.1        6.8981        0.0012       21.5601       21.5613      14.663208       0.05227
  35     180.9        6.9040        0.0014       21.4243       21.4257      14.521743       0.05022
  34     204.7        6.9106        0.0016       21.2964       21.2979      14.387363       0.04769
  33     228.4        6.9179        0.0017       21.1748       21.1766      14.258680       0.04569
  32     252.2        6.9259        0.0019       21.0596       21.0615      14.135544       0.04370
  31     276.0        6.9347        0.0021       20.9498       20.9519      14.017221       0.04201
  30     299.8        6.9441        0.0022       20.8448       20.8470      13.902900       0.04057
  29     323.5        6.9543        0.0024       20.7442       20.7466      13.792332       0.03926
  28     347.3        6.9653        0.0026       20.6453       20.6479      13.682582       0.03896
  27     371.1        6.9777        0.0027       20.5471       20.5498      13.572069       0.03922
  26     394.9        6.9921        0.0029       20.4464       20.4493      13.457240       0.04075
  25     418.6        7.0082        0.0031       20.3434       20.3464      13.338202       0.04226
  24     442.4        7.0259        0.0032       20.2398       20.2430      13.217058       0.04301
  23     466.2        7.0459        0.0034       20.1320       20.1354      13.089539       0.04525
  22     489.9        7.0677        0.0035       20.0220       20.0255      12.957835       0.04674
  21     513.7        7.0915        0.0037       19.9091       19.9128      12.821340       0.04846
  20     537.5        7.1182        0.0038       19.7898       19.7936      12.675382       0.05180
  19     561.3        7.1478        0.0040       19.6658       19.6697      12.521922       0.05448
  18     585.0        7.1803        0.0041       19.5374       19.5415      12.361249       0.05704
  17     608.8        7.2165        0.0042       19.4021       19.4064      12.189858       0.06082
  16     632.6        7.2561        0.0044       19.2628       19.2672      12.011027       0.06346
  15     656.4        7.2992        0.0045       19.1199       19.1244      11.825161       0.06599
  14     680.1        7.3461        0.0046       18.9739       18.9785      11.632384       0.06844
  13     703.9        7.3973        0.0048       18.8242       18.8290      11.431731       0.07121
  12     727.7        7.4520        0.0049       18.6744       18.6793      11.227332       0.07254
  11     751.5        7.5107        0.0050       18.5239       18.5289      11.018166       0.07426
  10     775.2        7.5737        0.0051       18.3734       18.3785      10.804851       0.07570
   9     799.0        7.6420        0.0052       18.2216       18.2268      10.584797       0.07813
   8     822.8        7.7150        0.0054       18.0709       18.0763      10.361252       0.07933
   7     846.6        7.7935        0.0055       17.9212       17.9267      10.133210       0.08096
   6     870.4        7.8778        0.0056       17.7728       17.7784       9.900607       0.08255
   5     894.1        7.9683        0.0057       17.6260       17.6317       9.663393       0.08422
   4     917.9        8.0652        0.0058       17.4818       17.4876       9.422405       0.08556
   3     941.7        8.1678        0.0059       17.3418       17.3477       9.179988       0.08603
   2     965.5        8.2765        0.0060       17.2061       17.2121       8.935611       0.08673
   1     989.2        8.3920        0.0061       17.0741       17.0803       8.688307       0.08776
   0    1013.0        8.5150        0.0063       16.9457       16.9520       8.436995       0.08922



 Wavenumbers:  5150. -  6150. cm-1, ATM      1
 LEVEL PRESSURE   UPWARD FLUX   DIFDOWN FLUX  DIRDOWN FLUX  DOWNWARD FLUX   NET FLUX    HEATING RATE
          mb          W/m2          W/m2          W/m2        W/m2          W/m2       degree/day
  59    0.1000       16.0715        0.0000       56.3444       56.3444      40.272863       0.00000
  58    0.1400       16.0715        0.0000       56.3442       56.3442      40.272699       0.03458
  57    0.1970       16.0715        0.0000       56.3440       56.3440      40.272454       0.03625
  56    0.2760       16.0715        0.0000       56.3436       56.3436      40.272101       0.03775
  55    0.3870       16.0715        0.0000       56.3431       56.3431      40.271591       0.03875
  54    0.5430       16.0715        0.0000       56.3424       56.3424      40.270867       0.03918
  53    0.7620       16.0715        0.0000       56.3413       56.3414      40.269827       0.04009
  52     1.070       16.0715        0.0000       56.3399       56.3399      40.268398       0.03914
  51     1.500       16.0715        0.0000       56.3379       56.3379      40.266360       0.04000
  50     2.100       16.0716        0.0001       56.3350       56.3351      40.263521       0.03994
  49     2.950       16.0716        0.0001       56.3310       56.3311      40.259534       0.03958
  48     4.130       16.0716        0.0001       56.3255       56.3256      40.253965       0.03983
  47     5.800       16.0717        0.0002       56.3177       56.3179      40.246222       0.03913
  46     8.130       16.0718        0.0003       56.3070       56.3073      40.235482       0.03890
  45     11.41       16.0720        0.0004       56.2923       56.2927      40.220671       0.03811
  44     16.01       16.0723        0.0006       56.2722       56.2728      40.200437       0.03712
  43     22.46       16.0727        0.0008       56.2450       56.2458      40.173072       0.03580
  42     31.51       16.0734        0.0011       56.2089       56.2100      40.136608       0.03400
  41     44.20       16.0745        0.0016       56.1621       56.1636      40.089113       0.03159
  40     62.00       16.0763        0.0022       56.1027       56.1049      40.028555       0.02871
  39     85.77       16.0791        0.0030       56.0319       56.0349      39.955735       0.02585
  38     109.5       16.0822        0.0038       55.9680       55.9719      39.889688       0.02345
  37     133.3       16.0854        0.0047       55.9098       55.9144      39.829015       0.02153
  36     157.1       16.0888        0.0055       55.8550       55.8605      39.771701       0.02034
  35     180.9       16.0923        0.0063       55.7930       55.7993      39.707018       0.02296
  34     204.7       16.0958        0.0071       55.7124       55.7195      39.623685       0.02957
  33     228.4       16.0995        0.0080       55.6020       55.6099      39.510392       0.04022
  32     252.2       16.1034        0.0088       55.4529       55.4617      39.358244       0.05400
  31     276.0       16.1074        0.0096       55.2803       55.2899      39.182423       0.06242
  30     299.8       16.1116        0.0103       55.0895       55.0999      38.988278       0.06890
  29     323.5       16.1158        0.0111       54.8944       54.9055      38.789668       0.07051
  28     347.3       16.1203        0.0119       54.6567       54.6686      38.548309       0.08569
  27     371.1       16.1255        0.0126       54.2412       54.2538      38.128346       0.14904
  26     394.9       16.1320        0.0132       53.5857       53.5990      37.466982       0.23471
  25     418.6       16.1395        0.0139       52.8703       52.8842      36.744636       0.25646
  24     442.4       16.1479        0.0145       52.1719       52.1864      36.038441       0.25072
  23     466.2       16.1577        0.0151       51.4684       51.4835      35.325807       0.25290
  22     489.9       16.1690        0.0157       50.7478       50.7634      34.594412       0.25956
  21     513.7       16.1823        0.0162       49.9961       50.0123      33.829955       0.27141
  20     537.5       16.1984        0.0167       49.1767       49.1934      32.994967       0.29632
  19     561.3       16.2176        0.0172       48.3014       48.3186      32.101018       0.31738
  18     585.0       16.2404        0.0176       47.3776       47.3952      31.154868       0.33592
  17     608.8       16.2680        0.0180       46.4102       46.4282      30.160258       0.35297
  16     632.6       16.2999        0.0184       45.4623       45.4807      29.180771       0.34760
  15     656.4       16.3368        0.0188       44.5438       44.5626      28.225860       0.33903
  14     680.1       16.3792        0.0192       43.6576       43.6768      27.297588       0.32957
  13     703.9       16.4280        0.0196       42.8093       42.8289      26.400977       0.31819
  12     727.7       16.4823        0.0200       42.0226       42.0427      25.560368       0.29832
  11     751.5       16.5434        0.0204       41.2849       41.3054      24.761925       0.28347
  10     775.2       16.6123        0.0208       40.5952       40.6161      24.003733       0.26907
   9     799.0       16.6908        0.0213       39.9458       39.9670      23.276299       0.25826
   8     822.8       16.7789        0.0217       39.3476       39.3693      22.590368       0.24343
   7     846.6       16.8788        0.0221       38.7931       38.8152      21.936392       0.23218
   6     870.4       16.9927        0.0226       38.2785       38.3011      21.308350       0.22288
   5     894.1       17.1241        0.0230       37.8012       37.8242      20.700155       0.21593
   4     917.9       17.2734        0.0235       37.3685       37.3920      20.118586       0.20648
   3     941.7       17.4417        0.0240       36.9805       37.0045      19.562773       0.19725
   2     965.5       17.6326        0.0244       36.6311       36.6555      19.022942       0.19158
   1     989.2       17.8524        0.0249       36.3135       36.3384      18.486075       0.19053
   0    1013.0       18.1079        0.0254       36.0246       36.0501      17.942118       0.19312



 Wavenumbers:  6150. -  7700. cm-1, ATM      1
 LEVEL PRESSURE   UPWARD FLUX   DIFDOWN FLUX  DIRDOWN FLUX  DOWNWARD FLUX   NET FLUX    HEATING RATE
          mb          W/m2          W/m2          W/m2        W/m2          W/m2       degree/day
  59    0.1000       28.6818        0.0000      104.2111      104.2111      75.529262       0.00000
  58    0.1400       28.6818        0.0000      104.2109      104.2109      75.529038       0.04746
  57    0.1970       28.6818        0.0000      104.2105      104.2105      75.528705       0.04917
  56    0.2760       28.6818        0.0000      104.2100      104.2101      75.528230       0.05080
  55    0.3870       28.6818        0.0000      104.2093      104.2094      75.527548       0.05184
  54    0.5430       28.6818        0.0001      104.2083      104.2084      75.526582       0.05226
  53    0.7620       28.6818        0.0001      104.2069      104.2070      75.525200       0.05326
  52     1.070       28.6818        0.0001      104.2049      104.2051      75.523311       0.05176
  51     1.500       28.6818        0.0002      104.2022      104.2024      75.520625       0.05272
  50     2.100       28.6817        0.0003      104.1983      104.1986      75.516895       0.05246
  49     2.950       28.6817        0.0004      104.1929      104.1933      75.511675       0.05182
  48     4.130       28.6816        0.0006      104.1854      104.1860      75.504396       0.05206
  47     5.800       28.6815        0.0008      104.1749      104.1758      75.494278       0.05113
  46     8.130       28.6814        0.0012      104.1604      104.1616      75.480215       0.05094
  45     11.41       28.6812        0.0017      104.1402      104.1419      75.460728       0.05014
  44     16.01       28.6809        0.0024      104.1124      104.1148      75.433898       0.04922
  43     22.46       28.6805        0.0033      104.0744      104.0777      75.397185       0.04804
  42     31.51       28.6800        0.0046      104.0228      104.0275      75.347465       0.04636
  41     44.20       28.6793        0.0065      103.9542      103.9608      75.281451       0.04390
  40     62.00       28.6784        0.0091      103.8641      103.8732      75.194859       0.04105
  39     85.77       28.6771        0.0126      103.7520      103.7646      75.087416       0.03815
  38     109.5       28.6760        0.0161      103.6469      103.6630      74.986956       0.03567
  37     133.3       28.6749        0.0195      103.5479      103.5674      74.892468       0.03353
  36     157.1       28.6739        0.0230      103.4524      103.4754      74.801423       0.03231
  35     180.9       28.6731        0.0265      103.3451      103.3716      74.698499       0.03654
  34     204.7       28.6725        0.0299      103.2092      103.2390      74.566579       0.04682
  33     228.4       28.6722        0.0333      103.0258      103.0591      74.386840       0.06381
  32     252.2       28.6724        0.0367      102.7822      102.8189      74.146474       0.08530
  31     276.0       28.6730        0.0400      102.5058      102.5458      73.872733       0.09719
  30     299.8       28.6741        0.0433      102.2130      102.2564      73.582258       0.10308
  29     323.5       28.6754        0.0466      101.9275      101.9741      73.298644       0.10069
  28     347.3       28.6775        0.0499      101.5978      101.6477      72.970180       0.11662
  27     371.1       28.6820        0.0530      101.0501      101.1031      72.421098       0.19486
  26     394.9       28.6908        0.0558      100.1789      100.2347      71.543870       0.31131
  25     418.6       28.7032        0.0586       99.1572       99.2158      70.512633       0.36612
  24     442.4       28.7186        0.0612       98.0700       98.1312      69.412616       0.39054
  23     466.2       28.7386        0.0638       96.8922       96.9561      68.217463       0.42414
  22     489.9       28.7643        0.0663       95.6344       95.7007      66.936383       0.45463
  21     513.7       28.7971        0.0687       94.3200       94.3887      65.591607       0.47744
  20     537.5       28.8395        0.0709       92.9196       92.9905      64.151021       0.51124
  19     561.3       28.8928        0.0730       91.4603       91.5333      62.640493       0.53629
  18     585.0       28.9593        0.0749       89.9356       90.0105      61.051173       0.56426
  17     608.8       29.0426        0.0767       88.3220       88.3987      59.356155       0.60154
  16     632.6       29.1410        0.0784       86.7036       86.7820      57.641055       0.60866
  15     656.4       29.2562        0.0801       85.0902       85.1703      55.914150       0.61311
  14     680.1       29.3905        0.0817       83.4950       83.5766      54.186163       0.61349
  13     703.9       29.5456        0.0833       81.9356       82.0189      52.473332       0.60786
  12     727.7       29.7185        0.0848       80.4660       80.5508      50.832297       0.58238
  11     751.5       29.9127        0.0864       79.0672       79.1536      49.240932       0.56499
  10     775.2       30.1301        0.0880       77.7399       77.8278      47.697725       0.54766
   9     799.0       30.3757        0.0895       76.4683       76.5578      46.182108       0.53809
   8     822.8       30.6479        0.0911       75.2722       75.3633      44.715431       0.52050
   7     846.6       30.9515        0.0927       74.1413       74.2340      43.282529       0.50873
   6     870.4       31.2914        0.0943       73.0680       73.1623      41.870893       0.50097
   5     894.1       31.6736        0.0958       72.0505       72.1463      40.472754       0.49639
   4     917.9       32.0948        0.0975       71.1079       71.2054      39.110562       0.48362
   3     941.7       32.5536        0.0992       70.2451       70.3443      37.790643       0.46842
   2     965.5       33.0552        0.1009       69.4538       69.5547      36.499567       0.45818
   1     989.2       33.6107        0.1027       68.7211       68.8237      35.213066       0.45656
   0    1013.0       34.2296        0.1045       68.0413       68.1458      33.916177       0.46044



 Wavenumbers:  7700. -  8050. cm-1, ATM      1
 LEVEL PRESSURE   UPWARD FLUX   DIFDOWN FLUX  DIRDOWN FLUX  DOWNWARD FLUX   NET FLUX    HEATING RATE
          mb          W/m2          W/m2          W/m2        W/m2          W/m2       degree/day
  59    0.1000       10.6451        0.0000       24.6282       24.6282      13.983119       0.00000
  58    0.1400       10.6451        0.0000       24.6281       24.6281      13.983024       0.02001
  57    0.1970       10.6451        0.0000       24.6280       24.6280      13.982889       0.01990
  56    0.2760       10.6452        0.0000       24.6279       24.6279      13.982703       0.01995
  55    0.3870       10.6453        0.0000       24.6277       24.6277      13.982441       0.01990
  54    0.5430       10.6454        0.0000       24.6274       24.6275      13.982073       0.01990
  53    0.7620       10.6456        0.0000       24.6271       24.6271      13.981551       0.02013
  52     1.070       10.6458        0.0001       24.6266       24.6266      13.980839       0.01951
  51     1.500       10.6461        0.0001       24.6258       24.6259      13.979824       0.01992
  50     2.100       10.6465        0.0001       24.6248       24.6249      13.978411       0.01987
  49     2.950       10.6472        0.0002       24.6234       24.6236      13.976426       0.01971
  48     4.130       10.6480        0.0003       24.6214       24.6217      13.973642       0.01991
  47     5.800       10.6492        0.0004       24.6186       24.6190      13.969743       0.01970
  46     8.130       10.6509        0.0005       24.6147       24.6152      13.964274       0.01981
  45     11.41       10.6533        0.0008       24.6092       24.6099      13.956598       0.01975
  44     16.01       10.6567        0.0011       24.6015       24.6025      13.945845       0.01973
  43     22.46       10.6614        0.0015       24.5907       24.5922      13.930786       0.01970
  42     31.51       10.6681        0.0021       24.5757       24.5778      13.909712       0.01965
  41     44.20       10.6775        0.0029       24.5547       24.5577      13.880188       0.01963
  40     62.00       10.6907        0.0041       24.5255       24.5296      13.838884       0.01958
  39     85.77       10.7086        0.0057       24.4868       24.4925      13.783871       0.01953
  38     109.5       10.7268        0.0072       24.4484       24.4556      13.728852       0.01953
  37     133.3       10.7451        0.0088       24.4105       24.4193      13.674185       0.01940
  36     157.1       10.7637        0.0104       24.3727       24.3831      13.619444       0.01943
  35     180.9       10.7825        0.0119       24.3353       24.3472      13.564771       0.01941
  34     204.7       10.8015        0.0134       24.2984       24.3118      13.510360       0.01931
  33     228.4       10.8207        0.0150       24.2616       24.2766      13.455838       0.01936
  32     252.2       10.8402        0.0165       24.2251       24.2416      13.401394       0.01932
  31     276.0       10.8600        0.0181       24.1888       24.2069      13.346921       0.01934
  30     299.8       10.8800        0.0196       24.1529       24.1725      13.292507       0.01931
  29     323.5       10.9001        0.0211       24.1174       24.1385      13.238359       0.01922
  28     347.3       10.9207        0.0226       24.0818       24.1044      13.183779       0.01938
  27     371.1       10.9414        0.0241       24.0466       24.0708      13.129422       0.01929
  26     394.9       10.9624        0.0257       24.0117       24.0373      13.074915       0.01934
  25     418.6       10.9839        0.0272       23.9766       24.0037      13.019862       0.01955
  24     442.4       11.0054        0.0287       23.9421       23.9708      12.965348       0.01935
  23     466.2       11.0275        0.0302       23.9073       23.9375      12.909988       0.01965
  22     489.9       11.0498        0.0317       23.8729       23.9046      12.854716       0.01962
  21     513.7       11.0723        0.0332       23.8388       23.8720      12.799641       0.01955
  20     537.5       11.0956        0.0347       23.8043       23.8389      12.743338       0.01998
  19     561.3       11.1191        0.0361       23.7700       23.8061      12.687009       0.02000
  18     585.0       11.1429        0.0376       23.7360       23.7736      12.630753       0.01997
  17     608.8       11.1674        0.0391       23.7016       23.7407      12.573337       0.02038
  16     632.6       11.1924        0.0406       23.6672       23.7078      12.515410       0.02056
  15     656.4       11.2177        0.0421       23.6329       23.6749      12.457213       0.02066
  14     680.1       11.2434        0.0435       23.5987       23.6423      12.398829       0.02073
  13     703.9       11.2698        0.0450       23.5642       23.6092      12.339395       0.02109
  12     727.7       11.2965        0.0464       23.5299       23.5764      12.279872       0.02112
  11     751.5       11.3236        0.0479       23.4957       23.5436      12.220019       0.02125
  10     775.2       11.3510        0.0493       23.4616       23.5110      12.159999       0.02130
   9     799.0       11.3791        0.0508       23.4273       23.4781      12.099080       0.02163
   8     822.8       11.4074        0.0523       23.3932       23.4454      12.038044       0.02166
   7     846.6       11.4362        0.0537       23.3591       23.4128      11.976657       0.02179
   6     870.4       11.4653        0.0551       23.3252       23.3803      11.915078       0.02185
   5     894.1       11.4947        0.0566       23.2914       23.3480      11.853318       0.02193
   4     917.9       11.5246        0.0580       23.2576       23.3156      11.790964       0.02214
   3     941.7       11.5548        0.0594       23.2239       23.2834      11.728550       0.02215
   2     965.5       11.5853        0.0609       23.1905       23.2513      11.666033       0.02219
   1     989.2       11.6161        0.0623       23.1572       23.2195      11.603434       0.02222
   0    1013.0       11.6472        0.0637       23.1240       23.1877      11.540536       0.02233



 Wavenumbers:  8050. - 12850. cm-1, ATM      1
 LEVEL PRESSURE   UPWARD FLUX   DIFDOWN FLUX  DIRDOWN FLUX  DOWNWARD FLUX   NET FLUX    HEATING RATE
          mb          W/m2          W/m2          W/m2        W/m2          W/m2       degree/day
  59    0.1000      152.1303        0.0000      344.8128      344.8128     192.682531       0.00000
  58    0.1400      152.1303        0.0001      344.8127      344.8128     192.682531       0.00000
  57    0.1970      152.1302        0.0003      344.8125      344.8128     192.682531      -0.00000
  56    0.2760      152.1302        0.0006      344.8121      344.8127     192.682531      -0.00000
  55    0.3870      152.1301        0.0010      344.8117      344.8127     192.682531       0.00000
  54    0.5430      152.1300        0.0015      344.8111      344.8126     192.682531      -0.00000
  53    0.7620      152.1299        0.0022      344.8102      344.8124     192.682531       0.00000
  52     1.070      152.1297        0.0032      344.8090      344.8122     192.682531      -0.00000
  51     1.500      152.1294        0.0046      344.8073      344.8120     192.682531       0.00000
  50     2.100      152.1291        0.0066      344.8050      344.8116     192.682531       0.00000
  49     2.950      152.1285        0.0094      344.8016      344.8111     192.682531       0.00000
  48     4.130      152.1278        0.0133      344.7970      344.8103     192.682531      -0.00000
  47     5.800      152.1268        0.0188      344.7905      344.8093     192.682531       0.00000
  46     8.130      152.1253        0.0265      344.7813      344.8078     192.682531      -0.00000
  45     11.41      152.1233        0.0373      344.7685      344.8058     192.682531       0.00000
  44     16.01      152.1204        0.0524      344.7505      344.8030     192.682531       0.00000
  43     22.46      152.1164        0.0737      344.7253      344.7990     192.682531       0.00000
  42     31.51      152.1108        0.1034      344.6900      344.7934     192.682531      -0.00000
  41     44.20      152.1030        0.1450      344.6405      344.7855     192.682531       0.00000
  40     62.00      152.0920        0.2033      344.5712      344.7745     192.682531      -0.00000
  39     85.77      152.0773        0.2812      344.4786      344.7598     192.682531       0.00000
  38     109.5      152.0634        0.3591      344.3750      344.7341     192.670652       0.00422
  37     133.3      152.0496        0.4366      344.2720      344.7086     192.659060       0.00411
  36     157.1      152.0356        0.5143      344.1688      344.6831     192.647552       0.00408
  35     180.9      152.0216        0.5920      344.0632      344.6552     192.633597       0.00495
  34     204.7      152.0079        0.6693      343.9523      344.6216     192.613657       0.00708
  33     228.4      151.9947        0.7468      343.8309      344.5777     192.582958       0.01090
  32     252.2      151.9824        0.8242      343.6939      344.5181     192.535683       0.01678
  31     276.0      151.9710        0.9015      343.5440      344.4456     192.474561       0.02170
  30     299.8      151.9605        0.9788      343.3839      344.3627     192.402160       0.02569
  29     323.5      151.9506        1.0555      343.2207      344.2763     192.325673       0.02716
  28     347.3      151.9421        1.1328      343.0397      344.1725     192.230437       0.03381
  27     371.1      151.9396        1.2095      342.7861      343.9956     192.056003       0.06190
  26     394.9      151.9476        1.2857      342.4185      343.7041     191.756511       0.10628
  25     418.6      151.9637        1.3622      341.9892      343.3513     191.387639       0.13096
  24     442.4      151.9872        1.4375      341.5256      342.9631     190.975965       0.14616
  23     466.2      152.0209        1.5136      341.0097      342.5233     190.502367       0.16807
  22     489.9      152.0679        1.5888      340.4380      342.0268     189.958827       0.19289
  21     513.7      152.1311        1.6630      339.8104      341.4734     189.342321       0.21888
  20     537.5      152.2159        1.7378      339.1057      340.8435     188.627583       0.25365
  19     561.3      152.3255        1.8117      338.3318      340.1435     187.818001       0.28743
  18     585.0      152.4642        1.8841      337.4848      339.3689     186.904688       0.32426
  17     608.8      152.6392        1.9567      336.5477      338.5044     185.865217       0.36889
  16     632.6      152.8459        2.0287      335.5598      337.5886     184.742671       0.39837
  15     656.4      153.0870        2.0999      334.5230      336.6229     183.535908       0.42844
  14     680.1      153.3663        2.1701      333.4376      335.6077     182.241329       0.45962
  13     703.9      153.6858        2.2404      332.3096      334.5500     180.864182       0.48873
  12     727.7      154.0373        2.3100      331.1780      333.4880     179.450717       0.50162
  11     751.5      154.4254        2.3791      330.0362      332.4154     177.989953       0.51862
  10     775.2      154.8520        2.4475      328.8885      331.3360     176.484020       0.53443
   9     799.0      155.3236        2.5161      327.7266      330.2427     174.919083       0.55561
   8     822.8      155.8339        2.5842      326.5746      329.1588     173.324940       0.56574
   7     846.6      156.3880        2.6519      325.4279      328.0798     171.691728       0.57984
   6     870.4      156.9894        2.7191      324.2873      327.0064     170.017008       0.59433
   5     894.1      157.6410        2.7857      323.1551      325.9408     168.299797       0.60967
   4     917.9      158.3296        2.8529      322.0562      324.9092     166.579618       0.61072
   3     941.7      159.0442        2.9202      321.0056      323.9258     164.881645       0.60258
   2     965.5      159.7835        2.9878      320.0022      322.9899     163.206423       0.59451
   1     989.2      160.5539        3.0553      319.0377      322.0931     161.539147       0.59169
   0    1013.0      161.3557        3.1233      318.1105      321.2338     159.878061       0.58974



 Wavenumbers: 12850. - 16000. cm-1, ATM      1
 LEVEL PRESSURE   UPWARD FLUX   DIFDOWN FLUX  DIRDOWN FLUX  DOWNWARD FLUX   NET FLUX    HEATING RATE
          mb          W/m2          W/m2          W/m2        W/m2          W/m2       degree/day
  59    0.1000      102.9960        0.0000      216.0557      216.0557     113.059711       0.00000
  58    0.1400      102.9961        0.0003      216.0525      216.0527     113.056613       0.65372
  57    0.1970      102.9964        0.0007      216.0478      216.0485     113.052161       0.65911
  56    0.2760      102.9969        0.0013      216.0414      216.0427     113.045822       0.67714
  55    0.3870      102.9978        0.0021      216.0324      216.0344     113.036672       0.69570
  54    0.5430      102.9995        0.0032      216.0197      216.0228     113.023368       0.71968
  53    0.7620      103.0025        0.0047      216.0018      216.0065     113.003983       0.74701
  52     1.070      103.0078        0.0069      215.9777      215.9846     112.976722       0.74694
  51     1.500      103.0179        0.0100      215.9432      215.9531     112.935265       0.81364
  50     2.100      103.0348        0.0142      215.8962      215.9104     112.875622       0.83888
  49     2.950      103.0615        0.0203      215.8336      215.8538     112.792357       0.82669
  48     4.130      103.1004        0.0287      215.7533      215.7819     112.681542       0.79253
  47     5.800      103.1543        0.0404      215.6523      215.6927     112.538393       0.72339
  46     8.130      103.2267        0.0570      215.5245      215.5815     112.354805       0.66494
  45     11.41      103.3211        0.0801      215.3607      215.4408     112.119638       0.60507
  44     16.01      103.4432        0.1125      215.1463      215.2588     111.815572       0.55784
  43     22.46      103.6061        0.1579      214.8559      215.0138     111.407633       0.53375
  42     31.51      103.8259        0.2212      214.4581      214.6793     110.853450       0.51678
  41     44.20      104.1062        0.3098      213.9314      214.2412     110.135049       0.47775
  40     62.00      104.4305        0.4335      213.2742      213.7077     109.277245       0.40669
  39     85.77      104.7036        0.5987      212.5864      213.1851     108.481497       0.28252
  38     109.5      104.9057        0.7652      212.0205      212.7857     107.879998       0.21355
  37     133.3      105.0438        0.9308      211.5369      212.4677     107.423881       0.16187
  36     157.1      105.1371        1.0968      211.1108      212.2076     107.070474       0.12542
  35     180.9      105.1950        1.2628      210.7294      211.9921     106.797176       0.09703
  34     204.7      105.2398        1.4278      210.3678      211.7956     106.555760       0.08567
  33     228.4      105.2806        1.5930      210.0124      211.6053     106.324715       0.08203
  32     252.2      105.3176        1.7577      209.6617      211.4194     106.101825       0.07910
  31     276.0      105.3482        1.9223      209.3170      211.2393     105.891124       0.07481
  30     299.8      105.3724        2.0864      208.9777      211.0641     105.691676       0.07078
  29     323.5      105.3894        2.2494      208.6465      210.8959     105.506476       0.06575
  28     347.3      105.4030        2.4135      208.3156      210.7291     105.326052       0.06406
  27     371.1      105.4166        2.5763      207.9854      210.5617     105.145129       0.06421
  26     394.9      105.4313        2.7388      207.6535      210.3922     104.960909       0.06538
  25     418.6      105.4471        2.9020      207.3184      210.2204     104.773295       0.06661
  24     442.4      105.4638        3.0629      206.9867      210.0496     104.585780       0.06657
  23     466.2      105.4829        3.2256      206.6498      209.8754     104.392493       0.06859
  22     489.9      105.5051        3.3868      206.3132      209.7000     104.194846       0.07014
  21     513.7      105.5310        3.5462      205.9768      209.5230     103.991988       0.07202
  20     537.5      105.5619        3.7078      205.6323      209.3401     103.778198       0.07587
  19     561.3      105.5976        3.8679      205.2867      209.1545     103.556947       0.07855
  18     585.0      105.6387        4.0259      204.9407      208.9666     103.327908       0.08132
  17     608.8      105.6868        4.1853      204.5864      208.7717     103.084870       0.08625
  16     632.6      105.7410        4.3443      204.2288      208.5731     102.832060       0.08972
  15     656.4      105.8015        4.5022      203.8693      208.3715     102.570019       0.09303
  14     680.1      105.8686        4.6587      203.5085      208.1672     102.298612       0.09636
  13     703.9      105.9431        4.8163      203.1418      207.9581     102.015049       0.10063
  12     727.7      106.0233        4.9727      202.7756      207.7483     101.724989       0.10294
  11     751.5      106.1100        5.1286      202.4081      207.5367     101.426642       0.10592
  10     775.2      106.2033        5.2833      202.0408      207.3241     101.120716       0.10857
   9     799.0      106.3044        5.4389      201.6693      207.1081     100.803681       0.11256
   8     822.8      106.4119        5.5934      201.2988      206.8923     100.480335       0.11475
   7     846.6      106.5265        5.7475      200.9283      206.6758     100.149257       0.11754
   6     870.4      106.6483        5.9007      200.5584      206.4592      99.810894       0.12008
   5     894.1      106.7775        6.0530      200.1894      206.2425      99.464945       0.12282
   4     917.9      106.9137        6.2062      199.8200      206.0262      99.112547       0.12511
   3     941.7      107.0554        6.3591      199.4537      205.8128      98.757354       0.12605
   2     965.5      107.2030        6.5118      199.0904      205.6022      98.399229       0.12709
   1     989.2      107.3572        6.6643      198.7300      205.3944      98.037141       0.12850
   0    1013.0      107.5189        6.8172      198.3715      205.1887      97.669838       0.13040



 Wavenumbers: 16000. - 22650. cm-1, ATM      1
 LEVEL PRESSURE   UPWARD FLUX   DIFDOWN FLUX  DIRDOWN FLUX  DOWNWARD FLUX   NET FLUX    HEATING RATE
          mb          W/m2          W/m2          W/m2        W/m2          W/m2       degree/day
  59    0.1000      170.3826        0.0000      344.4769      344.4769     174.094293       0.00000
  58    0.1400      170.3830        0.0016      344.4746      344.4761     174.093159       0.23919
  57    0.1970      170.3836        0.0038      344.4710      344.4748     174.091170       0.29456
  56    0.2760      170.3849        0.0068      344.4657      344.4725     174.087566       0.38494
  55    0.3870      170.3876        0.0112      344.4574      344.4685     174.080993       0.49977
  54    0.5430      170.3925        0.0172      344.4444      344.4616     174.069085       0.64415
  53    0.7620      170.4015        0.0258      344.4239      344.4497     174.048171       0.80595
  52     1.070      170.4172        0.0375      344.3923      344.4298     174.012643       0.97346
  51     1.500      170.4471        0.0542      344.3394      344.3936     173.946470       1.29870
  50     2.100      170.4979        0.0774      344.2562      344.3337     173.835794       1.55668
  49     2.950      170.5779        0.1100      344.1303      344.2403     173.662397       1.72155
  48     4.130      170.6947        0.1557      343.9491      344.1048     173.410124       1.80421
  47     5.800      170.8563        0.2197      343.6979      343.9176     173.061219       1.76315
  46     8.130      171.0729        0.3093      343.3568      343.6662     172.593248       1.69497
  45     11.41      171.3551        0.4350      342.9023      343.3373     171.982247       1.57205
  44     16.01      171.7190        0.6108      342.3005      342.9113     171.192297       1.44924
  43     22.46      172.2043        0.8566      341.4868      342.3435     170.139116       1.37798
  42     31.51      172.8595        1.1995      340.3806      341.5801     168.720640       1.32273
  41     44.20      173.6959        1.6785      338.9262      340.6047     166.908773       1.20493
  40     62.00      174.6606        2.3466      337.1171      339.4637     164.803077       0.99833
  39     85.77      175.4568        3.2365      335.2103      338.4468     162.989926       0.64373
  38     109.5      175.9385        4.1251      333.6239      337.7490     161.810459       0.41875
  37     133.3      176.2443        5.0069      332.2206      337.2276     160.983243       0.29357
  36     157.1      176.4249        5.8892      330.9396      336.8288     160.403875       0.20561
  35     180.9      176.5054        6.7688      329.7588      336.5276     160.022196       0.13551
  34     204.7      176.5468        7.6413      328.6236      336.2649     159.718137       0.10791
  33     228.4      176.5726        8.5127      327.5030      336.0157     159.443134       0.09764
  32     252.2      176.5831        9.3794      326.4013      335.7807     159.197543       0.08716
  31     276.0      176.5714       10.2430      325.3232      335.5662     158.994770       0.07199
  30     299.8      176.5374       11.1023      324.2702      335.3725     158.835021       0.05669
  29     323.5      176.4795       11.9542      323.2478      335.2021     158.722605       0.03991
  28     347.3      176.4057       12.8095      322.2344      335.0439     158.638188       0.02997
  27     371.1      176.3254       13.6561      321.2361      334.8921     158.566768       0.02535
  26     394.9      176.2395       14.4987      320.2456      334.7443     158.504818       0.02199
  25     418.6      176.1473       15.3434      319.2563      334.5996     158.452305       0.01864
  24     442.4      176.0514       16.1745      318.2854      334.4599     158.408491       0.01556
  23     466.2      175.9510       17.0121      317.3079      334.3200     158.369025       0.01401
  22     489.9      175.8498       17.8407      316.3402      334.1809     158.331048       0.01348
  21     513.7      175.7483       18.6582      315.3844      334.0426     158.294279       0.01305
  20     537.5      175.6441       19.4849      314.4167      333.9016     158.257481       0.01306
  19     561.3      175.5397       20.3024      313.4584      333.7608     158.221162       0.01289
  18     585.0      175.4355       21.1081      312.5126      333.6207     158.185130       0.01279
  17     608.8      175.3295       21.9191      311.5589      333.4780     158.148455       0.01302
  16     632.6      175.2227       22.7267      310.6078      333.3345     158.111743       0.01303
  15     656.4      175.1156       23.5277      309.6629      333.1906     158.075001       0.01304
  14     680.1      175.0085       24.3201      308.7265      333.0467     158.038153       0.01308
  13     703.9      174.8996       25.1168      307.7837      332.9005     158.000836       0.01324
  12     727.7      174.7904       25.9060      306.8483      332.7543     157.963840       0.01313
  11     751.5      174.6805       26.6909      305.9166      332.6075     157.926948       0.01310
  10     775.2      174.5704       27.4685      304.9921      332.4606     157.890215       0.01304
   9     799.0      174.4586       28.2491      304.0626      332.3117     157.853132       0.01317
   8     822.8      174.3465       29.0230      303.1396      332.1626     157.816174       0.01312
   7     846.6      174.2337       29.7927      302.2202      332.0129     157.779209       0.01312
   6     870.4      174.1206       30.5568      301.3060      331.8628     157.742269       0.01311
   5     894.1      174.0071       31.3146      300.3979      331.7125     157.705437       0.01308
   4     917.9      173.8917       32.0744      299.4864      331.5608     157.669047       0.01292
   3     941.7      173.7752       32.8304      298.5783      331.4087     157.633559       0.01259
   2     965.5      173.6573       33.5837      297.6727      331.2563     157.599000       0.01226
   1     989.2      173.5384       34.3330      296.7707      331.1037     157.565265       0.01197
   0    1013.0      173.4179       35.0816      295.8686      330.9502     157.532297       0.01170



 Wavenumbers: 22650. - 29000. cm-1, ATM      1
 LEVEL PRESSURE   UPWARD FLUX   DIFDOWN FLUX  DIRDOWN FLUX  DOWNWARD FLUX   NET FLUX    HEATING RATE
          mb          W/m2          W/m2          W/m2        W/m2          W/m2       degree/day
  59    0.1000       71.2694        0.0000      129.9930      129.9930      58.723690       0.00000
  58    0.1400       71.2692        0.0018      129.9910      129.9929      58.723690       0.00000
  57    0.1970       71.2689        0.0044      129.9882      129.9926      58.723690      -0.00000
  56    0.2760       71.2686        0.0081      129.9842      129.9923      58.723690       0.00000
  55    0.3870       71.2681        0.0132      129.9786      129.9918      58.723690      -0.00000
  54    0.5430       71.2674        0.0203      129.9708      129.9911      58.723690       0.00000
  53    0.7620       71.2665        0.0304      129.9597      129.9901      58.723690       0.00000
  52     1.070       71.2651        0.0442      129.9446      129.9888      58.723690       0.00000
  51     1.500       71.2633        0.0639      129.9230      129.9870      58.723690      -0.00000
  50     2.100       71.2606        0.0913      129.8930      129.9843      58.723690       0.00000
  49     2.950       71.2570        0.1298      129.8509      129.9806      58.723690      -0.00000
  48     4.130       71.2518        0.1837      129.7918      129.9755      58.723690       0.00000
  47     5.800       71.2445        0.2591      129.7091      129.9682      58.723690      -0.00000
  46     8.130       71.2343        0.3649      129.5931      129.9580      58.723690       0.00000
  45     11.41       71.2200        0.5131      129.4305      129.9437      58.723690       0.00000
  44     16.01       71.1997        0.7204      129.2030      129.9234      58.723690      -0.00000
  43     22.46       71.1712        1.0100      128.8849      129.8949      58.723690       0.00000
  42     31.51       71.1309        1.4137      128.4409      129.8546      58.723690       0.00000
  41     44.20       71.0736        1.9765      127.8208      129.7973      58.723690      -0.00000
  40     62.00       70.9921        2.7582      126.9576      129.7157      58.723690       0.00000
  39     85.77       70.8807        3.7891      125.8153      129.6044      58.723690       0.00000
  38     109.5       70.7664        4.8072      124.6829      129.4901      58.723690       0.00000
  37     133.3       70.6499        5.8069      123.5667      129.3736      58.723690      -0.00000
  36     157.1       70.5303        6.7964      122.4576      129.2540      58.723690       0.00000
  35     180.9       70.4080        7.7720      121.3597      129.1317      58.723690       0.00000
  34     204.7       70.2835        8.7304      120.2768      129.0072      58.723690       0.00000
  33     228.4       70.1560        9.6789      119.2008      128.8797      58.723690      -0.00000
  32     252.2       70.0260       10.6136      118.1361      128.7497      58.723690       0.00000
  31     276.0       69.8933       11.5359      117.0811      128.6170      58.723690       0.00000
  30     299.8       69.7581       12.4445      116.0373      128.4818      58.723690       0.00000
  29     323.5       69.6212       13.3361      115.0088      128.3449      58.723690      -0.00000
  28     347.3       69.4806       14.2222      113.9821      128.2043      58.723690       0.00000
  27     371.1       69.3384       15.0910      112.9711      128.0621      58.723690       0.00000
  26     394.9       69.1938       15.9475      111.9699      127.9175      58.723690       0.00000
  25     418.6       69.0457       16.7978      110.9716      127.7694      58.723690       0.00000
  24     442.4       68.8969       17.6264      109.9943      127.6206      58.723690       0.00000
  23     466.2       68.7439       18.4535      109.0142      127.4676      58.723690       0.00000
  22     489.9       68.5895       19.2638      108.0494      127.3132      58.723690       0.00000
  21     513.7       68.4341       20.0557      107.1021      127.1578      58.723690      -0.00000
  20     537.5       68.2739       20.8489      106.1486      126.9976      58.723690       0.00000
  19     561.3       68.1124       21.6257      105.2104      126.8361      58.723690      -0.00000
  18     585.0       67.9503       22.3839      104.2901      126.6740      58.723690       0.00000
  17     608.8       67.7840       23.1397      103.3680      126.5077      58.723690       0.00000
  16     632.6       67.6155       23.8850      102.4542      126.3392      58.723690      -0.00000
  15     656.4       67.4453       24.6169      101.5520      126.1690      58.723690       0.00000
  14     680.1       67.2739       25.3339      100.6637      125.9976      58.723690       0.00000
  13     703.9       67.0987       26.0475       99.7749      125.8224      58.723690      -0.00000
  12     727.7       66.9221       26.7473       98.8984      125.6458      58.723690       0.00000
  11     751.5       66.7435       27.4364       98.0308      125.4672      58.723690       0.00000
  10     775.2       66.5637       28.1122       97.1752      125.2874      58.723690       0.00000
   9     799.0       66.3802       28.7835       96.3204      125.1039      58.723690       0.00000
   8     822.8       66.1954       29.4424       95.4767      124.9190      58.723690      -0.00000
   7     846.6       66.0086       30.0909       94.6414      124.7323      58.723690       0.00000
   6     870.4       65.8203       30.7279       93.8161      124.5440      58.723690      -0.00000
   5     894.1       65.6307       31.3532       93.0013      124.3544      58.723690       0.00000
   4     917.9       65.4378       31.9734       92.1880      124.1614      58.723690       0.00000
   3     941.7       65.2429       32.5840       91.3826      123.9666      58.723690       0.00000
   2     965.5       65.0458       33.1857       90.5838      123.7695      58.723690       0.00000
   1     989.2       64.8469       33.7778       89.7928      123.5706      58.723690      -0.00000
   0    1013.0       64.6454       34.3628       89.0063      123.3691      58.723690       0.00000



 Wavenumbers: 29000. - 38000. cm-1, ATM      1
 LEVEL PRESSURE   UPWARD FLUX   DIFDOWN FLUX  DIRDOWN FLUX  DOWNWARD FLUX   NET FLUX    HEATING RATE
          mb          W/m2          W/m2          W/m2        W/m2          W/m2       degree/day
  59    0.1000       11.9694        0.0000       45.8410       45.8410      33.871595       0.00000
  58    0.1400       11.9689        0.0012       45.8124       45.8136      33.844684       5.67765
  57    0.1970       11.9684        0.0030       45.7630       45.7660      33.797678       6.95942
  56    0.2760       11.9678        0.0054       45.6756       45.6810      33.713235       9.02062
  55    0.3870       11.9672        0.0088       45.5202       45.5290      33.561707      11.52038
  54    0.5430       11.9670        0.0134       45.2494       45.2628      33.295766      14.38668
  53    0.7620       11.9675        0.0197       44.8019       44.8216      32.854144      17.01785
  52     1.070       11.9692        0.0279       44.1127       44.1406      32.171330      18.70899
  51     1.500       11.9744        0.0387       43.0236       43.0623      31.087845      21.26439
  50     2.100       11.9847        0.0527       41.6137       41.6664      29.681684      19.77799
  49     2.950       12.0021        0.0715       40.0524       40.1239      28.121766      15.48750
  48     4.130       12.0282        0.0969       38.5211       38.6180      26.589776      10.95652
  47     5.800       12.0648        0.1314       37.0685       37.1999      25.135058       7.35124
  46     8.130       12.1144        0.1782       35.6638       35.8421      23.727627       5.09765
  45     11.41       12.1799        0.2417       34.2912       34.5329      22.353058       3.53664
  44     16.01       12.2659        0.3276       32.9306       33.2582      20.992284       2.49647
  43     22.46       12.3859        0.4428       31.5205       31.9633      19.577394       1.85123
  42     31.51       12.5610        0.5965       30.0332       30.6297      18.068730       1.40683
  41     44.20       12.8081        0.8032       28.5104       29.3137      16.505610       1.03951
  40     62.00       13.1301        1.0841       27.0176       28.1017      14.971645       0.72727
  39     85.77       13.4251        1.4598       25.7484       27.2082      13.783047       0.42199
  38     109.5       13.6201        1.8341       24.8316       26.6657      13.045625       0.26181
  37     133.3       13.7522        2.2022       24.0874       26.2895      12.537318       0.18039
  36     157.1       13.8333        2.5677       23.4494       26.0172      12.183846       0.12544
  35     180.9       13.8684        2.9300       22.8897       25.8197      11.951316       0.08256
  34     204.7       13.8854        3.2826       22.3688       25.6513      11.765918       0.06579
  33     228.4       13.8960        3.6264       21.8677       25.4941      11.598092       0.05958
  32     252.2       13.8997        3.9607       21.3871       25.3478      11.448116       0.05322
  31     276.0       13.8922        4.2879       20.9284       25.2163      11.324153       0.04401
  30     299.8       13.8727        4.6082       20.4908       25.0990      11.226266       0.03474
  29     323.5       13.8398        4.9214       20.0755       24.9969      11.157131       0.02455
  28     347.3       13.7975        5.2304       19.6721       24.9026      11.105107       0.01847
  27     371.1       13.7506        5.5297       19.2821       24.8118      11.061134       0.01561
  26     394.9       13.6998        5.8208       18.9022       24.7230      11.023276       0.01344
  25     418.6       13.6443        6.1063       18.5295       24.6358      10.991476       0.01129
  24     442.4       13.5858        6.3808       18.1703       24.5511      10.965279       0.00930
  23     466.2       13.5237        6.6510       17.8148       24.4658      10.942085       0.00823
  22     489.9       13.4600        6.9113       17.4689       24.3802      10.920181       0.00777
  21     513.7       13.3951        7.1615       17.1331       24.2946      10.899486       0.00735
  20     537.5       13.3274        7.4080       16.7988       24.2068      10.879397       0.00713
  19     561.3       13.2584        7.6452       16.4735       24.1187      10.860296       0.00678
  18     585.0       13.1885        7.8727       16.1580       24.0306      10.842165       0.00644
  17     608.8       13.1161        8.0955       15.8452       23.9407      10.824590       0.00624
  16     632.6       13.0421        8.3112       15.5386       23.8499      10.807747       0.00598
  15     656.4       12.9668        8.5192       15.2393       23.7585      10.791655       0.00571
  14     680.1       12.8905        8.7192       14.9476       23.6668      10.776297       0.00545
  13     703.9       12.8120        8.9145       14.6589       23.5734      10.761420       0.00528
  12     727.7       12.7323        9.1022       14.3773       23.4795      10.747222       0.00504
  11     751.5       12.6513        9.2834       14.1015       23.3849      10.733613       0.00483
  10     775.2       12.5693        9.4576       13.8323       23.2899      10.720596       0.00462
   9     799.0       12.4853        9.6270       13.5662       23.1932      10.707912       0.00450
   8     822.8       12.4004        9.7896       13.3063       23.0960      10.695618       0.00436
   7     846.6       12.3143        9.9462       13.0517       22.9979      10.683659       0.00425
   6     870.4       12.2272       10.0965       12.8027       22.8992      10.672039       0.00412
   5     894.1       12.1393       10.2406       12.5594       22.8000      10.660772       0.00400
   4     917.9       12.0495       10.3802       12.3191       22.6993      10.649766       0.00391
   3     941.7       11.9587       10.5142       12.0835       22.5978      10.639107       0.00378
   2     965.5       11.8666       10.6430       11.8523       22.4953      10.628772       0.00367
   1     989.2       11.7734       10.7664       11.6258       22.3922      10.618760       0.00355
   0    1013.0       11.6788       10.8851       11.4028       22.2878      10.609015       0.00346



 Wavenumbers: 38000. - 50000. cm-1, ATM      1
 LEVEL PRESSURE   UPWARD FLUX   DIFDOWN FLUX  DIRDOWN FLUX  DOWNWARD FLUX   NET FLUX    HEATING RATE
          mb          W/m2          W/m2          W/m2        W/m2          W/m2       degree/day
  59    0.1000        0.0071        0.0000        2.8274        2.8274       2.820310       0.00000
  58    0.1400        0.0069        0.0002        2.8117        2.8119       2.804962       3.23819
  57    0.1970        0.0067        0.0006        2.7847        2.7853       2.778617       3.90054
  56    0.2760        0.0064        0.0010        2.7376        2.7386       2.732280       4.94994
  55    0.3870        0.0059        0.0016        2.6554        2.6570       2.651051       6.17569
  54    0.5430        0.0054        0.0023        2.5157        2.5180       2.512567       7.49155
  53    0.7620        0.0048        0.0030        2.2939        2.2969       2.292063       8.49713
  52     1.070        0.0041        0.0035        1.9750        1.9785       1.974353       8.70518
  51     1.500        0.0034        0.0035        1.5280        1.5315       1.528056       8.75899
  50     2.100        0.0028        0.0032        1.0563        1.0595       1.056640       6.63058
  49     2.950        0.0023        0.0027        0.6751        0.6778       0.675550       3.78362
  48     4.130        0.0018        0.0024        0.4270        0.4294       0.427568       1.77352
  47     5.800        0.0015        0.0021        0.2730        0.2751       0.273612       0.77800
  46     8.130        0.0011        0.0018        0.1726        0.1744       0.173232       0.36357
  45     11.41        0.0008        0.0015        0.1066        0.1081       0.107323       0.16958
  44     16.01        0.0005        0.0011        0.0634        0.0646       0.064035       0.07942
  43     22.46        0.0003        0.0008        0.0344        0.0351       0.034809       0.03824
  42     31.51        0.0002        0.0004        0.0158        0.0162       0.016037       0.01751
  41     44.20        0.0001        0.0002        0.0059        0.0060       0.005957       0.00670
  40     62.00        0.0000        0.0001        0.0017        0.0018       0.001752       0.00199
  39     85.77        0.0000        0.0000        0.0004        0.0005       0.000459       0.00046
  38     109.5        0.0000        0.0000        0.0001        0.0001       0.000140       0.00011
  37     133.3        0.0000        0.0000        0.0000        0.0000       0.000046       0.00003
  36     157.1        0.0000        0.0000        0.0000        0.0000       0.000016       0.00001
  35     180.9        0.0000        0.0000        0.0000        0.0000       0.000006       0.00000
  34     204.7        0.0000        0.0000        0.0000        0.0000       0.000002       0.00000
  33     228.4        0.0000        0.0000        0.0000        0.0000       0.000001       0.00000
  32     252.2        0.0000        0.0000        0.0000        0.0000       0.000000       0.00000
  31     276.0        0.0000        0.0000        0.0000        0.0000       0.000000       0.00000
  30     299.8        0.0000        0.0000        0.0000        0.0000       0.000000       0.00000
  29     323.5        0.0000        0.0000        0.0000        0.0000       0.000000       0.00000
  28     347.3        0.0000        0.0000        0.0000        0.0000       0.000000       0.00000
  27     371.1        0.0000        0.0000        0.0000        0.0000       0.000000       0.00000
  26     394.9        0.0000        0.0000        0.0000        0.0000       0.000000       0.00000
  25     418.6        0.0000        0.0000        0.0000        0.0000       0.000000       0.00000
  24     442.4        0.0000        0.0000        0.0000        0.0000       0.000000       0.00000
  23     466.2        0.0000        0.0000        0.0000        0.0000       0.000000       0.00000
  22     489.9        0.0000        0.0000        0.0000        0.0000       0.000000       0.00000
  21     513.7        0.0000        0.0000        0.0000        0.0000       0.000000       0.00000
  20     537.5        0.0000        0.0000        0.0000        0.0000       0.000000       0.00000
  19     561.3        0.0000        0.0000        0.0000        0.0000       0.000000       0.00000
  18     585.0        0.0000        0.0000        0.0000        0.0000       0.000000       0.00000
  17     608.8        0.0000        0.0000        0.0000        0.0000       0.000000       0.00000
  16     632.6        0.0000        0.0000        0.0000        0.0000       0.000000       0.00000
  15     656.4        0.0000        0.0000        0.0000        0.0000       0.000000       0.00000
  14     680.1        0.0000        0.0000        0.0000        0.0000       0.000000       0.00000
  13     703.9        0.0000        0.0000        0.0000        0.0000       0.000000       0.00000
  12     727.7        0.0000        0.0000        0.0000        0.0000       0.000000       0.00000
  11     751.5        0.0000        0.0000        0.0000        0.0000       0.000000       0.00000
  10     775.2        0.0000        0.0000        0.0000        0.0000       0.000000       0.00000
   9     799.0        0.0000        0.0000        0.0000        0.0000       0.000000       0.00000
   8     822.8        0.0000        0.0000        0.0000        0.0000       0.000000       0.00000
   7     846.6        0.0000        0.0000        0.0000        0.0000       0.000000       0.00000
   6     870.4        0.0000        0.0000        0.0000        0.0000       0.000000       0.00000
   5     894.1        0.0000        0.0000        0.0000        0.0000       0.000000       0.00000
   4     917.9        0.0000        0.0000        0.0000        0.0000       0.000000       0.00000
   3     941.7        0.0000        0.0000        0.0000        0.0000       0.000000       0.00000
   2     965.5        0.0000        0.0000        0.0000        0.0000       0.000000       0.00000
   1     989.2        0.0000        0.0000        0.0000        0.0000       0.000000       0.00000
   0    1013.0        0.0000        0.0000        0.0000        0.0000       0.000000       0.00000



 Wavenumbers:   820. -  2600. cm-1, ATM      1
 LEVEL PRESSURE   UPWARD FLUX   DIFDOWN FLUX  DIRDOWN FLUX  DOWNWARD FLUX   NET FLUX    HEATING RATE
          mb          W/m2          W/m2          W/m2        W/m2          W/m2       degree/day
  59    0.1000        2.7434        0.0000       13.2264       13.2264      10.482993       0.00000
  58    0.1400        2.7434        0.0000       13.2159       13.2159      10.472540       2.20549
  57    0.1970        2.7434        0.0000       13.2115       13.2115      10.468133       0.65243
  56    0.2760        2.7434        0.0000       13.2061       13.2061      10.462691       0.58130
  55    0.3870        2.7434        0.0000       13.1997       13.1997      10.456262       0.48880
  54    0.5430        2.7434        0.0000       13.1923       13.1923      10.448907       0.39792
  53    0.7620        2.7434        0.0000       13.1835       13.1835      10.440098       0.33944
  52     1.070        2.7434        0.0000       13.1725       13.1725      10.429098       0.30140
  51     1.500        2.7434        0.0000       13.1571       13.1571      10.413662       0.30294
  50     2.100        2.7435        0.0000       13.1354       13.1354      10.391969       0.30512
  49     2.950        2.7435        0.0000       13.1048       13.1048      10.361290       0.30459
  48     4.130        2.7435        0.0000       13.0622       13.0622      10.318698       0.30461
  47     5.800        2.7436        0.0000       13.0045       13.0045      10.260942       0.29186
  46     8.130        2.7437        0.0000       12.9281       12.9281      10.184432       0.27712
  45     11.41        2.7438        0.0000       12.8285       12.8285      10.084678       0.25666
  44     16.01        2.7440        0.0000       12.7006       12.7006       9.956632       0.23491
  43     22.46        2.7442        0.0000       12.5504       12.5504       9.806231       0.19678
  42     31.51        2.7446        0.0000       12.4060       12.4060       9.661458       0.13500
  41     44.20        2.7451        0.0000       12.2951       12.2951       9.549995       0.07413
  40     62.00        2.7458        0.0000       12.2025       12.2025       9.456686       0.04424
  39     85.77        2.7469        0.0000       12.0933       12.0933       9.346420       0.03915
  38     109.5        2.7480        0.0000       11.9868       11.9868       9.238829       0.03820
  37     133.3        2.7491        0.0000       11.8812       11.8812       9.132129       0.03787
  36     157.1        2.7502        0.0000       11.7804       11.7804       9.030204       0.03617
  35     180.9        2.7514        0.0000       11.6791       11.6791       8.927781       0.03636
  34     204.7        2.7525        0.0000       11.5767       11.5767       8.824217       0.03675
  33     228.4        2.7536        0.0000       11.4716       11.4716       8.718023       0.03770
  32     252.2        2.7547        0.0000       11.3537       11.3537       8.598963       0.04225
  31     276.0        2.7559        0.0000       11.2343       11.2343       8.478411       0.04280
  30     299.8        2.7571        0.0000       11.1123       11.1123       8.355204       0.04372
  29     323.5        2.7583        0.0000       10.9975       10.9975       8.239259       0.04116
  28     347.3        2.7596        0.0001       10.8740       10.8741       8.114446       0.04431
  27     371.1        2.7618        0.0001       10.6929       10.6930       7.931204       0.06503
  26     394.9        2.7652        0.0001       10.4471       10.4472       7.681956       0.08845
  25     418.6        2.7694        0.0001       10.2084       10.2084       7.438992       0.08626
  24     442.4        2.7742        0.0001        9.9957        9.9957       7.221524       0.07721
  23     466.2        2.7799        0.0001        9.7932        9.7932       7.013358       0.07387
  22     489.9        2.7866        0.0001        9.5905        9.5906       6.803997       0.07430
  21     513.7        2.7944        0.0001        9.3781        9.3782       6.583792       0.07818
  20     537.5        2.8038        0.0001        9.1447        9.1447       6.340909       0.08620
  19     561.3        2.8148        0.0001        8.8937        8.8938       6.078979       0.09299
  18     585.0        2.8275        0.0001        8.6313        8.6314       5.803889       0.09767
  17     608.8        2.8424        0.0001        8.3632        8.3633       5.520884       0.10043
  16     632.6        2.8589        0.0001        8.1120        8.1121       5.253217       0.09499
  15     656.4        2.8771        0.0001        7.8845        7.8846       5.007484       0.08724
  14     680.1        2.8970        0.0001        7.6843        7.6843       4.787362       0.07815
  13     703.9        2.9187        0.0001        7.5130        7.5131       4.594433       0.06847
  12     727.7        2.9417        0.0001        7.3727        7.3728       4.431162       0.05794
  11     751.5        2.9661        0.0001        7.2568        7.2569       4.290742       0.04985
  10     775.2        2.9920        0.0001        7.1605        7.1606       4.168506       0.04338
   9     799.0        3.0196        0.0001        7.0787        7.0788       4.059141       0.03883
   8     822.8        3.0483        0.0001        7.0091        7.0092       3.960896       0.03487
   7     846.6        3.0782        0.0001        6.9481        6.9482       3.870028       0.03226
   6     870.4        3.1091        0.0001        6.8932        6.8933       3.784177       0.03047
   5     894.1        3.1415        0.0001        6.8425        6.8426       3.701158       0.02947
   4     917.9        3.1754        0.0001        6.7947        6.7948       3.619420       0.02902
   3     941.7        3.2108        0.0001        6.7491        6.7492       3.538440       0.02874
   2     965.5        3.2475        0.0001        6.7054        6.7055       3.457937       0.02857
   1     989.2        3.2859        0.0001        6.6629        6.6630       3.377042       0.02871
   0    1013.0        3.3260        0.0001        6.6215        6.6216       3.295577       0.02892

  Modules and versions used in this calculation:

       rrtmg_sw.1col.f90:  $Revision$                    rrtmg_sw_init.f90:  $Revision$        
     rrtmgsw_cldprop.f90:  $Revision$                  rrtmgsw_cldprmc.f90:  NOT USED          
     rrtmg_sw_reftra.f90:  $Revision$                  rrtmg_sw_spcvrt.f90:  NOT USED          
     rrtmg_sw_spcvmc.f90:  NOT USED                    rrtmgsw_setcoef.f90:  NOT USED          
     rrtmg_sw_taumol.f90:  $Revision$                  rrtmg_sw_vrtqdr.f90:  NOT USED          
                rrtatm.f:  NOT USED                             util_xxx.f:  NOT USED          
                 extra.f:  NOT USED                       rrtmg_sw_k_g.f90:  $Revision$        

