

 Wavenumbers:   820. - 50000. cm-1, ATM      1
 LEVEL PRESSURE   UPWARD FLUX   DIFDOWN FLUX  DIRDOWN FLUX  DOWNWARD FLUX   NET FLUX    HEATING RATE
          mb          W/m2          W/m2          W/m2        W/m2          W/m2       degree/day
  59    0.1000      790.5161        0.0000     1360.8491     1360.8491     570.332989       0.00000
  58    0.1400      790.5177        0.0066     1360.7700     1360.7766     570.258910      15.62902
  57    0.1970      790.5204        0.0159     1360.6656     1360.6814     570.161083      14.48383
  56    0.2760      790.5253        0.0288     1360.4973     1360.5261     570.000776      17.12476
  55    0.3870      790.5344        0.0468     1360.2162     1360.2629     569.728527      20.69862
  54    0.5430      790.5510        0.0718     1359.7485     1359.8203     569.269295      24.84313
  53    0.7620      790.5801        0.1068     1359.0015     1359.1083     568.528234      28.55672
  52     1.070      790.6294        0.1537     1357.8888     1358.0425     567.413083      30.55494
  51     1.500      790.7209        0.2189     1356.1988     1356.4177     565.696810      33.68344
  50     2.100      790.8736        0.3084     1354.0972     1354.4056     563.531953      30.44924
  49     2.950      791.1127        0.4332     1351.8433     1352.2765     561.163764      23.51235
  48     4.130      791.4610        0.6073     1349.6358     1350.2431     558.782079      17.03338
  47     5.800      791.9443        0.8502     1347.4520     1348.3022     556.357881      12.25040
  46     8.130      792.5966        1.1895     1345.1751     1346.3646     553.767987       9.38047
  45     11.41      793.4560        1.6633     1342.7079     1344.3712     550.915184       7.34000
  44     16.01      794.5799        2.3235     1339.9281     1342.2516     547.671735       5.95042
  43     22.46      796.0970        3.2420     1336.6282     1339.8702     543.773244       5.10076
  42     31.51      798.1744        4.5180     1332.6189     1337.1369     538.962459       4.48607
  41     44.20      800.8993        6.2938     1327.8040     1334.0978     533.198480       3.83318
  40     62.00      804.2042        8.7651     1322.1310     1330.8961     526.691935       3.08481
  39     85.77      807.2893       12.0554     1316.0883     1328.1437     520.854391       2.07252
  38     109.5      809.5605       15.3382     1310.8699     1326.2081     516.647576       1.49356
  37     133.3      811.3193       18.5886     1306.1391     1324.7277     513.408408       1.14953
  36     157.1      812.7093       21.8331     1301.7285     1323.5616     510.852283       0.90713
  35     180.9      813.7944       25.0602     1297.5383     1322.5985     508.804130       0.72716
  34     204.7      814.7594       28.2506     1293.4065     1321.6571     506.897728       0.67655
  33     228.4      815.6847       31.4249     1289.2005     1320.6254     504.940717       0.69480
  32     252.2      816.5677       34.5708     1284.8824     1319.4532     502.885438       0.72939
  31     276.0      817.3856       37.6956     1280.5653     1318.2609     500.875272       0.71368
  30     299.8      818.1361       40.7955     1276.2839     1317.0794     498.943312       0.68562
  29     323.5      818.8080       43.8602     1272.1283     1315.9886     497.180572       0.62583
  28     347.3      819.4406       46.9273     1267.8782     1314.8055     495.364827       0.64465
  27     371.1      820.0605       49.9525     1263.0375     1312.9899     492.929405       0.86429
  26     394.9      820.6838       52.9526     1257.3469     1310.2994     489.615622       1.17601
  25     418.6      821.3096       55.9497     1251.3901     1307.3398     486.030238       1.27293
  24     442.4      821.9283       58.8885     1245.4620     1304.3505     482.422260       1.28095
  23     466.2      822.5643       61.8403     1239.3762     1301.2164     478.652114       1.33797
  22     489.9      823.2182       64.7495     1233.1568     1297.9063     474.688143       1.40675
  21     513.7      823.8942       67.6095     1226.8116     1294.4210     470.526855       1.47740
  20     537.5      824.6168       70.4916     1220.1629     1290.6545     466.037739       1.59312
  19     561.3      825.3783       73.3311     1213.3419     1286.6730     461.294673       1.68395
  18     585.0      826.1850       76.1196     1206.3658     1282.4854     456.300384       1.77314
  17     608.8      827.0619       78.9166     1199.1415     1278.0581     450.996200       1.88237
  16     632.6      827.9955       81.6923     1191.9457     1273.6380     445.642421       1.89997
  15     656.4      828.9889       84.4359     1184.8126     1269.2485     440.259656       1.91106
  14     680.1      830.0479       87.1409     1177.7612     1264.9021     434.854206       1.91912
  13     703.9      831.1859       89.8514     1170.7810     1260.6324     429.446536       1.91910
  12     727.7      832.3813       92.5279     1164.0452     1256.5731     424.191758       1.86484
  11     751.5      833.6464       95.1813     1157.4888     1252.6702     419.023706       1.83483
  10     775.2      834.9841       97.8022     1151.1183     1248.9205     413.936416       1.80540
   9     799.0      836.4157      100.4246     1144.8574     1245.2820     408.866244       1.80008
   8     822.8      837.9255      103.0169     1138.7985     1241.8154     403.889928       1.76602
   7     846.6      839.5276      105.5873     1132.9030     1238.4903     398.962653       1.74935
   6     870.4      841.2314      108.1314     1127.1604     1235.2918     394.060401       1.73973
   5     894.1      843.0488      110.6473     1121.5673     1232.2146     389.165756       1.73776
   4     917.9      844.9693      113.1630     1116.1582     1229.3212     384.351938       1.70907
   3     941.7      846.9764      115.6597     1110.9747     1226.6344     379.657978       1.66581
   2     965.5      849.0782      118.1407     1105.9959     1224.1366     375.058310       1.63235
   1     989.2      851.2979      120.6026     1101.1905     1221.7931     370.495134       1.61940
   0    1013.0      853.6550      123.0559     1096.5367     1219.5925     365.937558       1.61809



 Wavenumbers:  2600. -  3250. cm-1, ATM      1
 LEVEL PRESSURE   UPWARD FLUX   DIFDOWN FLUX  DIRDOWN FLUX  DOWNWARD FLUX   NET FLUX    HEATING RATE
          mb          W/m2          W/m2          W/m2        W/m2          W/m2       degree/day
  59    0.1000        2.7136        0.0000       11.9937       11.9937       9.280132       0.00000
  58    0.1400        2.7136        0.0000       11.9937       11.9937       9.280103       0.00613
  57    0.1970        2.7136        0.0000       11.9936       11.9936       9.280062       0.00614
  56    0.2760        2.7136        0.0000       11.9936       11.9936       9.280003       0.00633
  55    0.3870        2.7136        0.0000       11.9935       11.9935       9.279915       0.00668
  54    0.5430        2.7136        0.0000       11.9934       11.9934       9.279777       0.00746
  53    0.7620        2.7136        0.0000       11.9931       11.9931       9.279548       0.00882
  52     1.070        2.7136        0.0000       11.9927       11.9927       9.279163       0.01053
  51     1.500        2.7136        0.0000       11.9921       11.9921       9.278496       0.01309
  50     2.100        2.7136        0.0000       11.9910       11.9910       9.277379       0.01572
  49     2.950        2.7136        0.0000       11.9891       11.9891       9.275557       0.01808
  48     4.130        2.7136        0.0000       11.9863       11.9863       9.272745       0.02011
  47     5.800        2.7136        0.0000       11.9822       11.9822       9.268608       0.02091
  46     8.130        2.7136        0.0000       11.9764       11.9764       9.262798       0.02104
  45     11.41        2.7136        0.0000       11.9686       11.9686       9.255010       0.02004
  44     16.01        2.7136        0.0000       11.9587       11.9587       9.245125       0.01813
  43     22.46        2.7136        0.0000       11.9469       11.9469       9.233249       0.01554
  42     31.51        2.7137        0.0000       11.9326       11.9326       9.218903       0.01338
  41     44.20        2.7138        0.0000       11.9144       11.9144       9.200584       0.01218
  40     62.00        2.7140        0.0000       11.8882       11.8882       9.174217       0.01250
  39     85.77        2.7144        0.0000       11.8479       11.8480       9.133592       0.01442
  38     109.5        2.7149        0.0001       11.8004       11.8005       9.085537       0.01706
  37     133.3        2.7156        0.0001       11.7500       11.7501       9.034472       0.01812
  36     157.1        2.7164        0.0001       11.6981       11.6982       8.981830       0.01868
  35     180.9        2.7173        0.0001       11.6460       11.6461       8.928843       0.01881
  34     204.7        2.7183        0.0001       11.5944       11.5945       8.876237       0.01867
  33     228.4        2.7195        0.0001       11.5432       11.5433       8.823827       0.01861
  32     252.2        2.7209        0.0001       11.4924       11.4926       8.771626       0.01853
  31     276.0        2.7226        0.0001       11.4428       11.4430       8.720368       0.01820
  30     299.8        2.7245        0.0001       11.3949       11.3950       8.670557       0.01768
  29     323.5        2.7265        0.0002       11.3497       11.3498       8.623296       0.01678
  28     347.3        2.7289        0.0002       11.3050       11.3051       8.576233       0.01671
  27     371.1        2.7320        0.0002       11.2558       11.2560       8.523965       0.01855
  26     394.9        2.7361        0.0002       11.1996       11.1998       8.463700       0.02139
  25     418.6        2.7409        0.0002       11.1410       11.1412       8.400330       0.02250
  24     442.4        2.7463        0.0002       11.0819       11.0822       8.335873       0.02288
  23     466.2        2.7525        0.0002       11.0197       11.0199       8.267415       0.02429
  22     489.9        2.7596        0.0002       10.9543       10.9545       8.194892       0.02574
  21     513.7        2.7678        0.0002       10.8847       10.8849       8.117138       0.02761
  20     537.5        2.7773        0.0002       10.8081       10.8083       8.030979       0.03058
  19     561.3        2.7884        0.0002       10.7252       10.7254       7.937071       0.03334
  18     585.0        2.8010        0.0003       10.6351       10.6353       7.834280       0.03649
  17     608.8        2.8158        0.0003       10.5360       10.5362       7.720460       0.04039
  16     632.6        2.8323        0.0003       10.4314       10.4317       7.599383       0.04297
  15     656.4        2.8507        0.0003       10.3217       10.3220       7.471307       0.04547
  14     680.1        2.8711        0.0003       10.2071       10.2074       7.336249       0.04795
  13     703.9        2.8939        0.0003       10.0880       10.0883       7.194387       0.05034
  12     727.7        2.9185        0.0003        9.9686        9.9689       7.050396       0.05110
  11     751.5        2.9452        0.0003        9.8489        9.8492       6.903924       0.05200
  10     775.2        2.9741        0.0003        9.7297        9.7300       6.755866       0.05254
   9     799.0        3.0057        0.0003        9.6105        9.6108       6.605092       0.05353
   8     822.8        3.0397        0.0003        9.4940        9.4943       6.454607       0.05340
   7     846.6        3.0765        0.0003        9.3798        9.3802       6.303691       0.05358
   6     870.4        3.1163        0.0003        9.2682        9.2686       6.152209       0.05376
   5     894.1        3.1597        0.0003        9.1595        9.1598       6.000085       0.05401
   4     917.9        3.2064        0.0003        9.0552        9.0555       5.849106       0.05360
   3     941.7        3.2561        0.0003        8.9568        8.9571       5.701009       0.05256
   2     965.5        3.3092        0.0004        8.8639        8.8642       5.555050       0.05180
   1     989.2        3.3664        0.0004        8.7757        8.7760       5.409696       0.05158
   0    1013.0        3.4282        0.0004        8.6919        8.6923       5.264036       0.05171



 Wavenumbers:  3250. -  4000. cm-1, ATM      1
 LEVEL PRESSURE   UPWARD FLUX   DIFDOWN FLUX  DIRDOWN FLUX  DOWNWARD FLUX   NET FLUX    HEATING RATE
          mb          W/m2          W/m2          W/m2        W/m2          W/m2       degree/day
  59    0.1000        0.5846        0.0000       20.2197       20.2197      19.635047       0.00000
  58    0.1400        0.5846        0.0000       20.2044       20.2044      19.619817       3.21320
  57    0.1970        0.5846        0.0000       20.1937       20.1937      19.609111       1.58506
  56    0.2760        0.5846        0.0000       20.1841       20.1841      19.599496       1.02710
  55    0.3870        0.5846        0.0000       20.1739       20.1739      19.589333       0.77273
  54    0.5430        0.5846        0.0000       20.1632       20.1632      19.578589       0.58121
  53    0.7620        0.5846        0.0000       20.1518       20.1518      19.567177       0.43976
  52     1.070        0.5846        0.0000       20.1397       20.1397      19.555048       0.33233
  51     1.500        0.5846        0.0000       20.1251       20.1251      19.540526       0.28500
  50     2.100        0.5846        0.0000       20.1072       20.1072      19.522628       0.25174
  49     2.950        0.5846        0.0000       20.0845       20.0845      19.499933       0.22533
  48     4.130        0.5846        0.0000       20.0557       20.0557      19.471057       0.20651
  47     5.800        0.5846        0.0000       20.0186       20.0186      19.433977       0.18738
  46     8.130        0.5846        0.0000       19.9695       19.9695      19.384932       0.17764
  45     11.41        0.5846        0.0000       19.9014       19.9014      19.316858       0.17515
  44     16.01        0.5846        0.0000       19.8019       19.8019      19.217291       0.18267
  43     22.46        0.5846        0.0000       19.6535       19.6535      19.068951       0.19409
  42     31.51        0.5846        0.0000       19.4354       19.4354      18.850872       0.20336
  41     44.20        0.5846        0.0001       19.1347       19.1348      18.550219       0.19994
  40     62.00        0.5845        0.0001       18.7612       18.7613      18.176794       0.17704
  39     85.77        0.5845        0.0001       18.3477       18.3478      17.763259       0.14682
  38     109.5        0.5845        0.0001       17.9632       17.9633      17.378818       0.13649
  37     133.3        0.5845        0.0002       17.6005       17.6007      17.016190       0.12869
  36     157.1        0.5845        0.0002       17.2513       17.2515      16.666976       0.12393
  35     180.9        0.5845        0.0002       16.9036       16.9039      16.319381       0.12341
  34     204.7        0.5845        0.0002       16.5410       16.5413      15.956773       0.12868
  33     228.4        0.5845        0.0003       16.1412       16.1415      15.556975       0.14194
  32     252.2        0.5846        0.0003       15.6954       15.6957      15.111107       0.15823
  31     276.0        0.5847        0.0003       15.2546       15.2549      14.670198       0.15654
  30     299.8        0.5849        0.0003       14.8282       14.8286      14.243643       0.15138
  29     323.5        0.5851        0.0003       14.4370       14.4374      13.852243       0.13896
  28     347.3        0.5854        0.0004       14.0406       14.0410      13.455626       0.14081
  27     371.1        0.5859        0.0004       13.5432       13.5436      12.957703       0.17671
  26     394.9        0.5868        0.0004       12.9292       12.9296      12.342704       0.21825
  25     418.6        0.5882        0.0004       12.3153       12.3156      11.727457       0.21843
  24     442.4        0.5898        0.0004       11.7330       11.7334      11.143561       0.20730
  23     466.2        0.5919        0.0004       11.1535       11.1538      10.561911       0.20642
  22     489.9        0.5947        0.0004       10.5687       10.5691       9.974394       0.20850
  21     513.7        0.5982        0.0004        9.9833        9.9837       9.385526       0.20907
  20     537.5        0.6027        0.0003        9.3938        9.3941       8.791426       0.21084
  19     561.3        0.6085        0.0003        8.8191        8.8195       8.210963       0.20608
  18     585.0        0.6158        0.0003        8.2685        8.2688       7.653033       0.19808
  17     608.8        0.6250        0.0003        7.7400        7.7404       7.115359       0.19081
  16     632.6        0.6360        0.0003        7.2613        7.2616       6.625563       0.17382
  15     656.4        0.6491        0.0003        6.8268        6.8271       6.177948       0.15892
  14     680.1        0.6646        0.0003        6.4282        6.4285       5.763848       0.14702
  13     703.9        0.6828        0.0003        6.0622        6.0625       5.379695       0.13633
  12     727.7        0.7034        0.0003        5.7336        5.7338       5.030480       0.12393
  11     751.5        0.7268        0.0003        5.4331        5.4334       4.706591       0.11499
  10     775.2        0.7535        0.0003        5.1570        5.1573       4.403727       0.10748
   9     799.0        0.7843        0.0003        4.8998        4.9001       4.115842       0.10221
   8     822.8        0.8190        0.0003        4.6636        4.6638       3.844863       0.09617
   7     846.6        0.8583        0.0003        4.4446        4.4449       3.586518       0.09172
   6     870.4        0.9033        0.0002        4.2408        4.2410       3.337714       0.08830
   5     894.1        0.9547        0.0002        4.0505        4.0507       3.096010       0.08581
   4     917.9        1.0122        0.0002        3.8764        3.8766       2.864435       0.08222
   3     941.7        1.0755        0.0002        3.7183        3.7185       2.643033       0.07857
   2     965.5        1.1452        0.0002        3.5747        3.5749       2.429709       0.07571
   1     989.2        1.2228        0.0002        3.4425        3.4428       2.219980       0.07443
   0    1013.0        1.3098        0.0002        3.3208        3.3210       2.011201       0.07412



 Wavenumbers:  4000. -  4650. cm-1, ATM      1
 LEVEL PRESSURE   UPWARD FLUX   DIFDOWN FLUX  DIRDOWN FLUX  DOWNWARD FLUX   NET FLUX    HEATING RATE
          mb          W/m2          W/m2          W/m2        W/m2          W/m2       degree/day
  59    0.1000        7.4059        0.0000       23.7440       23.7440      16.338130       0.00000
  58    0.1400        7.4059        0.0000       23.7440       23.7440      16.338126       0.00079
  57    0.1970        7.4059        0.0000       23.7440       23.7440      16.338121       0.00079
  56    0.2760        7.4059        0.0000       23.7440       23.7440      16.338113       0.00082
  55    0.3870        7.4059        0.0000       23.7440       23.7440      16.338102       0.00086
  54    0.5430        7.4059        0.0000       23.7439       23.7439      16.338084       0.00097
  53    0.7620        7.4059        0.0000       23.7439       23.7439      16.338055       0.00115
  52     1.070        7.4059        0.0000       23.7439       23.7439      16.338004       0.00137
  51     1.500        7.4059        0.0000       23.7438       23.7438      16.337917       0.00172
  50     2.100        7.4059        0.0000       23.7436       23.7436      16.337768       0.00209
  49     2.950        7.4059        0.0000       23.7434       23.7434      16.337521       0.00245
  48     4.130        7.4059        0.0000       23.7430       23.7430      16.337126       0.00283
  47     5.800        7.4059        0.0000       23.7424       23.7424      16.336514       0.00309
  46     8.130        7.4059        0.0000       23.7414       23.7415      16.335583       0.00337
  45     11.41        7.4059        0.0001       23.7400       23.7401      16.334183       0.00360
  44     16.01        7.4059        0.0001       23.7380       23.7380      16.332091       0.00384
  43     22.46        7.4060        0.0001       23.7349       23.7350      16.328979       0.00407
  42     31.51        7.4062        0.0002       23.7302       23.7304      16.324167       0.00449
  41     44.20        7.4065        0.0002       23.7228       23.7230      16.316485       0.00511
  40     62.00        7.4072        0.0003       23.7110       23.7113      16.304111       0.00587
  39     85.77        7.4085        0.0004       23.6934       23.6938      16.285371       0.00665
  38     109.5        7.4102        0.0006       23.6736       23.6742      16.264002       0.00759
  37     133.3        7.4123        0.0007       23.6533       23.6540      16.241709       0.00791
  36     157.1        7.4146        0.0008       23.6324       23.6332      16.218574       0.00821
  35     180.9        7.4173        0.0009       23.6110       23.6119      16.194585       0.00852
  34     204.7        7.4204        0.0010       23.5889       23.5899      16.169511       0.00890
  33     228.4        7.4238        0.0012       23.5656       23.5667      16.142901       0.00945
  32     252.2        7.4278        0.0013       23.5409       23.5422      16.114410       0.01011
  31     276.0        7.4321        0.0014       23.5150       23.5164      16.084380       0.01066
  30     299.8        7.4367        0.0015       23.4883       23.4899      16.053123       0.01109
  29     323.5        7.4417        0.0016       23.4614       23.4631      16.021424       0.01125
  28     347.3        7.4471        0.0018       23.4331       23.4348      15.987763       0.01195
  27     371.1        7.4535        0.0019       23.3997       23.4015      15.948072       0.01409
  26     394.9        7.4613        0.0020       23.3586       23.3606      15.899300       0.01731
  25     418.6        7.4701        0.0021       23.3132       23.3153      15.845169       0.01922
  24     442.4        7.4798        0.0022       23.2654       23.2677      15.787894       0.02033
  23     466.2        7.4906        0.0023       23.2135       23.2158      15.725224       0.02224
  22     489.9        7.5026        0.0025       23.1567       23.1592      15.656596       0.02436
  21     513.7        7.5160        0.0026       23.0946       23.0971      15.581113       0.02680
  20     537.5        7.5314        0.0027       23.0240       23.0267      15.495269       0.03046
  19     561.3        7.5483        0.0028       22.9455       22.9483      15.399907       0.03386
  18     585.0        7.5669        0.0029       22.8581       22.8610      15.294083       0.03757
  17     608.8        7.5878        0.0030       22.7601       22.7631      15.175239       0.04218
  16     632.6        7.6106        0.0031       22.6559       22.6590      15.048347       0.04503
  15     656.4        7.6355        0.0032       22.5464       22.5496      14.914057       0.04768
  14     680.1        7.6626        0.0033       22.4325       22.4358      14.773218       0.05000
  13     703.9        7.6922        0.0034       22.3155       22.3188      14.626664       0.05201
  12     727.7        7.7237        0.0035       22.1997       22.2032      14.479537       0.05221
  11     751.5        7.7573        0.0036       22.0850       22.0886      14.331283       0.05263
  10     775.2        7.7932        0.0037       21.9722       21.9759      14.182678       0.05274
   9     799.0        7.8318        0.0038       21.8604       21.8641      14.032325       0.05338
   8     822.8        7.8726        0.0039       21.7519       21.7557      13.883079       0.05297
   7     846.6        7.9160        0.0040       21.6461       21.6501      13.734092       0.05290
   6     870.4        7.9620        0.0041       21.5430       21.5471      13.585046       0.05289
   5     894.1        8.0110        0.0041       21.4426       21.4467      13.435733       0.05301
   4     917.9        8.0622        0.0042       21.3464       21.3507      13.288430       0.05230
   3     941.7        8.1152        0.0043       21.2554       21.2598      13.144529       0.05107
   2     965.5        8.1700        0.0044       21.1691       21.1735      13.003450       0.05007
   1     989.2        8.2272        0.0045       21.0864       21.0909      12.863748       0.04958
   0    1013.0        8.2870        0.0046       21.0070       21.0116      12.724627       0.04939



 Wavenumbers:  4650. -  5150. cm-1, ATM      1
 LEVEL PRESSURE   UPWARD FLUX   DIFDOWN FLUX  DIRDOWN FLUX  DOWNWARD FLUX   NET FLUX    HEATING RATE
          mb          W/m2          W/m2          W/m2        W/m2          W/m2       degree/day
  59    0.1000        5.4015        0.0000       22.4748       22.4748      17.073260       0.00000
  58    0.1400        5.4015        0.0000       22.4740       22.4740      17.072476       0.16542
  57    0.1970        5.4015        0.0000       22.4729       22.4729      17.071373       0.16328
  56    0.2760        5.4015        0.0000       22.4714       22.4714      17.069858       0.16185
  55    0.3870        5.4015        0.0000       22.4693       22.4693      17.067767       0.15895
  54    0.5430        5.4015        0.0000       22.4664       22.4664      17.064892       0.15552
  53    0.7620        5.4015        0.0000       22.4625       22.4625      17.060934       0.15255
  52     1.070        5.4015        0.0000       22.4573       22.4573      17.055766       0.14160
  51     1.500        5.4015        0.0000       22.4504       22.4504      17.048826       0.13619
  50     2.100        5.4015        0.0000       22.4415       22.4415      17.039952       0.12482
  49     2.950        5.4015        0.0000       22.4304       22.4304      17.028837       0.11035
  48     4.130        5.4015        0.0000       22.4170       22.4171      17.015516       0.09527
  47     5.800        5.4016        0.0000       22.4018       22.4019      17.000328       0.07675
  46     8.130        5.4016        0.0001       22.3853       22.3854      16.983810       0.05983
  45     11.41        5.4016        0.0001       22.3678       22.3679      16.966303       0.04504
  44     16.01        5.4017        0.0001       22.3486       22.3487      16.947026       0.03537
  43     22.46        5.4019        0.0002       22.3245       22.3247      16.922778       0.03173
  42     31.51        5.4022        0.0002       22.2887       22.2889      16.886739       0.03361
  41     44.20        5.4029        0.0003       22.2307       22.2311      16.828193       0.03893
  40     62.00        5.4041        0.0005       22.1365       22.1369      16.732806       0.04522
  39     85.77        5.4064        0.0006       21.9958       21.9964      16.590059       0.05068
  38     109.5        5.4093        0.0008       21.8485       21.8493      16.439996       0.05328
  37     133.3        5.4128        0.0010       21.7023       21.7033      16.290472       0.05306
  36     157.1        5.4169        0.0011       21.5601       21.5612      16.144312       0.05187
  35     180.9        5.4215        0.0013       21.4243       21.4256      16.004129       0.04977
  34     204.7        5.4266        0.0014       21.2964       21.2978      15.871178       0.04718
  33     228.4        5.4324        0.0016       21.1748       21.1764      15.744077       0.04513
  32     252.2        5.4387        0.0018       21.0596       21.0613      15.622678       0.04308
  31     276.0        5.4455        0.0019       20.9498       20.9517      15.506244       0.04134
  30     299.8        5.4529        0.0021       20.8448       20.8469      15.393967       0.03985
  29     323.5        5.4608        0.0022       20.7442       20.7464      15.285584       0.03848
  28     347.3        5.4695        0.0024       20.6453       20.6477      15.178223       0.03812
  27     371.1        5.4792        0.0025       20.5471       20.5496      15.070387       0.03827
  26     394.9        5.4904        0.0027       20.4464       20.4491      14.958647       0.03965
  25     418.6        5.5031        0.0028       20.3434       20.3462      14.843092       0.04103
  24     442.4        5.5170        0.0030       20.2398       20.2427      14.725757       0.04166
  23     466.2        5.5326        0.0031       20.1320       20.1352      14.602532       0.04373
  22     489.9        5.5497        0.0033       20.0220       20.0252      14.475519       0.04507
  21     513.7        5.5684        0.0034       19.9091       19.9125      14.344146       0.04664
  20     537.5        5.5894        0.0035       19.7898       19.7933      14.203949       0.04975
  19     561.3        5.6126        0.0037       19.6658       19.6694      14.056855       0.05222
  18     585.0        5.6380        0.0038       19.5374       19.5412      13.903161       0.05457
  17     608.8        5.6665        0.0039       19.4021       19.4061      13.739569       0.05806
  16     632.6        5.6976        0.0040       19.2628       19.2668      13.569256       0.06044
  15     656.4        5.7314        0.0042       19.1199       19.1241      13.392661       0.06270
  14     680.1        5.7682        0.0043       18.9739       18.9781      13.209961       0.06486
  13     703.9        5.8083        0.0044       18.8242       18.8286      13.020308       0.06730
  12     727.7        5.8512        0.0045       18.6744       18.6789      12.827664       0.06837
  11     751.5        5.8973        0.0046       18.5239       18.5285      12.631128       0.06978
  10     775.2        5.9468        0.0047       18.3734       18.3781      12.431352       0.07090
   9     799.0        6.0004        0.0048       18.2216       18.2264      12.225983       0.07291
   8     822.8        6.0577        0.0049       18.0709       18.0759      12.018137       0.07376
   7     846.6        6.1193        0.0050       17.9212       17.9263      11.806955       0.07498
   6     870.4        6.1855        0.0051       17.7728       17.7779      11.592471       0.07612
   5     894.1        6.2565        0.0052       17.6260       17.6312      11.374711       0.07731
   4     917.9        6.3326        0.0053       17.4818       17.4871      11.154545       0.07817
   3     941.7        6.4131        0.0054       17.3418       17.3473      10.934171       0.07821
   2     965.5        6.4984        0.0055       17.2061       17.2116      10.713157       0.07843
   1     989.2        6.5891        0.0056       17.0741       17.0798      10.490673       0.07896
   0    1013.0        6.6856        0.0057       16.9457       16.9514      10.265795       0.07984



 Wavenumbers:  5150. -  6150. cm-1, ATM      1
 LEVEL PRESSURE   UPWARD FLUX   DIFDOWN FLUX  DIRDOWN FLUX  DOWNWARD FLUX   NET FLUX    HEATING RATE
          mb          W/m2          W/m2          W/m2        W/m2          W/m2       degree/day
  59    0.1000       12.6226        0.0000       56.3444       56.3444      43.721758       0.00000
  58    0.1400       12.6226        0.0000       56.3442       56.3442      43.721594       0.03455
  57    0.1970       12.6226        0.0000       56.3440       56.3440      43.721350       0.03623
  56    0.2760       12.6226        0.0000       56.3436       56.3436      43.720997       0.03772
  55    0.3870       12.6226        0.0000       56.3431       56.3431      43.720487       0.03872
  54    0.5430       12.6226        0.0000       56.3424       56.3424      43.719764       0.03915
  53    0.7620       12.6226        0.0000       56.3413       56.3414      43.718725       0.04005
  52     1.070       12.6226        0.0000       56.3399       56.3399      43.717298       0.03909
  51     1.500       12.6226        0.0000       56.3379       56.3379      43.715263       0.03994
  50     2.100       12.6227        0.0001       56.3350       56.3351      43.712429       0.03987
  49     2.950       12.6227        0.0001       56.3310       56.3311      43.708451       0.03949
  48     4.130       12.6227        0.0001       56.3255       56.3256      43.702895       0.03973
  47     5.800       12.6228        0.0002       56.3177       56.3179      43.695175       0.03902
  46     8.130       12.6228        0.0003       56.3070       56.3073      43.684468       0.03878
  45     11.41       12.6230        0.0004       56.2923       56.2927      43.669707       0.03798
  44     16.01       12.6232        0.0005       56.2722       56.2727      43.649548       0.03699
  43     22.46       12.6235        0.0007       56.2450       56.2458      43.622293       0.03566
  42     31.51       12.6240        0.0010       56.2089       56.2100      43.586001       0.03384
  41     44.20       12.6248        0.0015       56.1621       56.1635      43.538781       0.03140
  40     62.00       12.6261        0.0020       56.1027       56.1047      43.478666       0.02850
  39     85.77       12.6282        0.0028       56.0319       56.0347      43.406517       0.02562
  38     109.5       12.6304        0.0036       55.9680       55.9716      43.341198       0.02319
  37     133.3       12.6329        0.0044       55.9098       55.9141      43.281288       0.02126
  36     157.1       12.6354        0.0051       55.8550       55.8601      43.224767       0.02006
  35     180.9       12.6380        0.0059       55.7930       55.7989      43.160899       0.02268
  34     204.7       12.6407        0.0067       55.7124       55.7191      43.078402       0.02928
  33     228.4       12.6434        0.0074       55.6020       55.6094      42.965973       0.03992
  32     252.2       12.6464        0.0082       55.4529       55.4611      42.814723       0.05368
  31     276.0       12.6494        0.0089       55.2803       55.2892      42.639832       0.06209
  30     299.8       12.6525        0.0097       55.0895       55.0992      42.446647       0.06856
  29     323.5       12.6557        0.0104       54.8944       54.9048      42.249009       0.07017
  28     347.3       12.6591        0.0111       54.6567       54.6678      42.008673       0.08533
  27     371.1       12.6631        0.0117       54.2412       54.2530      41.589889       0.14862
  26     394.9       12.6681        0.0123       53.5857       53.5981      40.929981       0.23419
  25     418.6       12.6739        0.0129       52.8703       52.8832      40.209312       0.25586
  24     442.4       12.6804        0.0135       52.1719       52.1854      39.504977       0.25006
  23     466.2       12.6879        0.0140       51.4684       51.4824      38.794489       0.25214
  22     489.9       12.6968        0.0146       50.7478       50.7623      38.065583       0.25868
  21     513.7       12.7071        0.0150       49.9961       50.0111      37.304030       0.27038
  20     537.5       12.7196        0.0155       49.1767       49.1922      36.472545       0.29508
  19     561.3       12.7346        0.0159       48.3014       48.3173      35.582754       0.31591
  18     585.0       12.7524        0.0163       47.3776       47.3939      34.641543       0.33416
  17     608.8       12.7740        0.0166       46.4102       46.4269      33.652903       0.35085
  16     632.6       12.7990        0.0170       45.4623       45.4793      32.680320       0.34515
  15     656.4       12.8278        0.0174       44.5438       44.5612      31.733359       0.33620
  14     680.1       12.8610        0.0177       43.6576       43.6753      30.814236       0.32632
  13     703.9       12.8992        0.0180       42.8093       42.8274      29.928132       0.31446
  12     727.7       12.9418        0.0184       42.0226       42.0410      29.099230       0.29416
  11     751.5       12.9897        0.0187       41.2849       41.3037      28.313955       0.27880
  10     775.2       13.0438        0.0191       40.5952       40.6143      27.570595       0.26381
   9     799.0       13.1052        0.0195       39.9458       39.9653      26.860035       0.25227
   8     822.8       13.1744        0.0199       39.3476       39.3674      26.193067       0.23670
   7     846.6       13.2527        0.0202       38.7931       38.8133      25.560585       0.22455
   6     870.4       13.3421        0.0206       38.2785       38.2991      24.957048       0.21419
   5     894.1       13.4451        0.0210       37.8012       37.8222      24.377096       0.20590
   4     917.9       13.5623        0.0214       37.3685       37.3900      23.827637       0.19508
   3     941.7       13.6944        0.0219       36.9805       37.0024      23.308004       0.18441
   2     965.5       13.8442        0.0223       36.6311       36.6534      22.809209       0.17701
   1     989.2       14.0167        0.0227       36.3135       36.3362      22.319583       0.17376
   0    1013.0       14.2173        0.0232       36.0246       36.0478      21.830562       0.17362



 Wavenumbers:  6150. -  7700. cm-1, ATM      1
 LEVEL PRESSURE   UPWARD FLUX   DIFDOWN FLUX  DIRDOWN FLUX  DOWNWARD FLUX   NET FLUX    HEATING RATE
          mb          W/m2          W/m2          W/m2        W/m2          W/m2       degree/day
  59    0.1000       22.5358        0.0000      104.2111      104.2111      81.675333       0.00000
  58    0.1400       22.5358        0.0000      104.2109      104.2109      81.675108       0.04746
  57    0.1970       22.5358        0.0000      104.2105      104.2105      81.674776       0.04917
  56    0.2760       22.5358        0.0000      104.2100      104.2101      81.674301       0.05080
  55    0.3870       22.5357        0.0000      104.2093      104.2094      81.673619       0.05184
  54    0.5430       22.5357        0.0001      104.2083      104.2084      81.672653       0.05226
  53    0.7620       22.5357        0.0001      104.2069      104.2070      81.671271       0.05326
  52     1.070       22.5357        0.0001      104.2049      104.2051      81.669382       0.05176
  51     1.500       22.5357        0.0002      104.2022      104.2024      81.666696       0.05272
  50     2.100       22.5356        0.0003      104.1983      104.1986      81.662966       0.05246
  49     2.950       22.5356        0.0004      104.1929      104.1933      81.657746       0.05182
  48     4.130       22.5355        0.0006      104.1854      104.1860      81.650467       0.05206
  47     5.800       22.5354        0.0008      104.1749      104.1757      81.640350       0.05113
  46     8.130       22.5352        0.0011      104.1604      104.1615      81.626287       0.05094
  45     11.41       22.5350        0.0016      104.1402      104.1418      81.606801       0.05014
  44     16.01       22.5347        0.0022      104.1124      104.1146      81.579973       0.04922
  43     22.46       22.5342        0.0031      104.0744      104.0775      81.543263       0.04803
  42     31.51       22.5336        0.0043      104.0228      104.0272      81.493550       0.04636
  41     44.20       22.5328        0.0061      103.9542      103.9603      81.427548       0.04389
  40     62.00       22.5317        0.0085      103.8641      103.8726      81.340981       0.04104
  39     85.77       22.5302        0.0118      103.7520      103.7638      81.233583       0.03813
  38     109.5       22.5288        0.0151      103.6469      103.6620      81.133185       0.03564
  37     133.3       22.5274        0.0183      103.5479      103.5662      81.038771       0.03351
  36     157.1       22.5261        0.0216      103.4524      103.4739      80.947814       0.03228
  35     180.9       22.5249        0.0248      103.3451      103.3699      80.845005       0.03650
  34     204.7       22.5239        0.0280      103.2092      103.2371      80.713254       0.04676
  33     228.4       22.5232        0.0312      103.0258      103.0569      80.533763       0.06373
  32     252.2       22.5228        0.0343      102.7822      102.8166      80.293734       0.08518
  31     276.0       22.5228        0.0375      102.5058      102.5432      80.020419       0.09704
  30     299.8       22.5231        0.0406      102.2130      102.2536      79.730460       0.10290
  29     323.5       22.5237        0.0436      101.9275      101.9711      79.447423       0.10049
  28     347.3       22.5248        0.0467      101.5978      101.6445      79.119684       0.11636
  27     371.1       22.5278        0.0496      101.0501      101.0997      78.571848       0.19442
  26     394.9       22.5343        0.0522      100.1789      100.2311      77.696783       0.31055
  25     418.6       22.5435        0.0547       99.1572       99.2119      76.668447       0.36509
  24     442.4       22.5552        0.0572       98.0700       98.1272      75.571998       0.38928
  23     466.2       22.5704        0.0596       96.8922       96.9518      74.381378       0.42253
  22     489.9       22.5902        0.0618       95.6344       95.6962      73.106054       0.45259
  21     513.7       22.6154        0.0640       94.3200       94.3839      71.768528       0.47487
  20     537.5       22.6483        0.0660       92.9196       92.9855      70.337267       0.50793
  19     561.3       22.6898        0.0679       91.4603       91.5282      68.838413       0.53214
  18     585.0       22.7416        0.0696       89.9356       90.0052      67.263571       0.55912
  17     608.8       22.8065        0.0711       88.3220       88.3932      65.586621       0.59512
  16     632.6       22.8834        0.0727       86.7036       86.7763      63.892843       0.60110
  15     656.4       22.9735        0.0741       85.0902       85.1644      62.190864       0.60426
  14     680.1       23.0786        0.0755       83.4950       83.5705      60.491898       0.60319
  13     703.9       23.2000        0.0769       81.9356       82.0125      58.812555       0.59597
  12     727.7       23.3354        0.0783       80.4660       80.5442      57.208835       0.56913
  11     751.5       23.4875        0.0797       79.0672       79.1468      55.659344       0.55012
  10     775.2       23.6579        0.0810       77.7399       77.8209      54.163006       0.53103
   9     799.0       23.8504        0.0824       76.4683       76.5507      52.700310       0.51931
   8     822.8       24.0637        0.0838       75.2722       75.3560      51.292260       0.49969
   7     846.6       24.3017        0.0852       74.1413       74.2265      49.924740       0.48552
   6     870.4       24.5683        0.0865       73.0680       73.1546      48.586287       0.47500
   5     894.1       24.8680        0.0879       72.0505       72.1384      47.270399       0.46718
   4     917.9       25.1984        0.0894       71.1079       71.1973      45.998861       0.45144
   3     941.7       25.5583        0.0909       70.2451       70.3360      44.777665       0.43338
   2     965.5       25.9517        0.0924       69.4538       69.5462      43.594484       0.41989
   1     989.2       26.3876        0.0940       68.7211       68.8150      42.427476       0.41415
   0    1013.0       26.8732        0.0956       68.0413       68.1369      41.263717       0.41317



 Wavenumbers:  7700. -  8050. cm-1, ATM      1
 LEVEL PRESSURE   UPWARD FLUX   DIFDOWN FLUX  DIRDOWN FLUX  DOWNWARD FLUX   NET FLUX    HEATING RATE
          mb          W/m2          W/m2          W/m2        W/m2          W/m2       degree/day
  59    0.1000        8.3644        0.0000       24.6282       24.6282      16.263782       0.00000
  58    0.1400        8.3644        0.0000       24.6281       24.6281      16.263693       0.01865
  57    0.1970        8.3645        0.0000       24.6280       24.6280      16.263568       0.01855
  56    0.2760        8.3645        0.0000       24.6279       24.6279      16.263394       0.01860
  55    0.3870        8.3646        0.0000       24.6277       24.6277      16.263150       0.01855
  54    0.5430        8.3647        0.0000       24.6274       24.6275      16.262807       0.01855
  53    0.7620        8.3648        0.0000       24.6271       24.6271      16.262320       0.01877
  52     1.070        8.3650        0.0001       24.6266       24.6266      16.261656       0.01819
  51     1.500        8.3652        0.0001       24.6258       24.6259      16.260710       0.01857
  50     2.100        8.3655        0.0001       24.6248       24.6249      16.259393       0.01852
  49     2.950        8.3660        0.0002       24.6234       24.6236      16.257542       0.01838
  48     4.130        8.3667        0.0002       24.6214       24.6216      16.254948       0.01856
  47     5.800        8.3676        0.0003       24.6186       24.6189      16.251314       0.01836
  46     8.130        8.3690        0.0005       24.6147       24.6152      16.246216       0.01846
  45     11.41        8.3708        0.0007       24.6092       24.6099      16.239063       0.01840
  44     16.01        8.3734        0.0010       24.6015       24.6025      16.229044       0.01838
  43     22.46        8.3771        0.0014       24.5907       24.5921      16.215017       0.01835
  42     31.51        8.3822        0.0019       24.5757       24.5776      16.195394       0.01830
  41     44.20        8.3895        0.0027       24.5547       24.5574      16.167918       0.01827
  40     62.00        8.3998        0.0038       24.5255       24.5293      16.129505       0.01821
  39     85.77        8.4136        0.0052       24.4868       24.4920      16.078394       0.01815
  38     109.5        8.4277        0.0066       24.4484       24.4550      16.027333       0.01813
  37     133.3        8.4419        0.0081       24.4105       24.4185      15.976654       0.01799
  36     157.1        8.4563        0.0095       24.3727       24.3822      15.925963       0.01799
  35     180.9        8.4708        0.0109       24.3353       24.3462      15.875391       0.01795
  34     204.7        8.4855        0.0123       24.2984       24.3107      15.825116       0.01784
  33     228.4        8.5005        0.0137       24.2616       24.2753      15.774793       0.01787
  32     252.2        8.5156        0.0151       24.2251       24.2402      15.724596       0.01781
  31     276.0        8.5309        0.0165       24.1888       24.2054      15.674426       0.01781
  30     299.8        8.5464        0.0179       24.1529       24.1708      15.624365       0.01777
  29     323.5        8.5621        0.0193       24.1174       24.1367      15.574601       0.01767
  28     347.3        8.5780        0.0207       24.0818       24.1025      15.524495       0.01779
  27     371.1        8.5941        0.0221       24.0466       24.0687      15.474647       0.01769
  26     394.9        8.6104        0.0234       24.0117       24.0351      15.424716       0.01772
  25     418.6        8.6271        0.0248       23.9766       24.0014      15.374339       0.01789
  24     442.4        8.6438        0.0262       23.9421       23.9683      15.324509       0.01769
  23     466.2        8.6609        0.0276       23.9073       23.9349      15.273958       0.01794
  22     489.9        8.6783        0.0289       23.8729       23.9018      15.223543       0.01789
  21     513.7        8.6958        0.0303       23.8388       23.8691      15.173361       0.01782
  20     537.5        8.7138        0.0317       23.8043       23.8359      15.122115       0.01819
  19     561.3        8.7321        0.0330       23.7700       23.8030      15.070901       0.01818
  18     585.0        8.7506        0.0343       23.7360       23.7704      15.019808       0.01814
  17     608.8        8.7696        0.0357       23.7016       23.7373      14.967717       0.01849
  16     632.6        8.7890        0.0370       23.6672       23.7042      14.915219       0.01863
  15     656.4        8.8087        0.0384       23.6329       23.6713      14.862530       0.01871
  14     680.1        8.8287        0.0397       23.5987       23.6384      14.809726       0.01875
  13     703.9        8.8493        0.0410       23.5642       23.6053      14.756026       0.01906
  12     727.7        8.8700        0.0424       23.5299       23.5723      14.702298       0.01907
  11     751.5        8.8911        0.0437       23.4957       23.5394      14.648325       0.01916
  10     775.2        8.9124        0.0450       23.4616       23.5067      14.594254       0.01919
   9     799.0        8.9342        0.0463       23.4273       23.4737      14.539425       0.01947
   8     822.8        8.9563        0.0477       23.3932       23.4408      14.484544       0.01948
   7     846.6        8.9787        0.0490       23.3591       23.4081      14.429398       0.01958
   6     870.4        9.0013        0.0503       23.3252       23.3755      14.374132       0.01961
   5     894.1        9.0242        0.0516       23.2914       23.3430      14.318755       0.01966
   4     917.9        9.0475        0.0529       23.2576       23.3104      14.262896       0.01983
   3     941.7        9.0711        0.0542       23.2239       23.2781      14.207035       0.01982
   2     965.5        9.0948        0.0555       23.1905       23.2459      14.151132       0.01984
   1     989.2        9.1188        0.0568       23.1572       23.2140      14.095206       0.01985
   0    1013.0        9.1430        0.0581       23.1240       23.1821      14.039063       0.01993



 Wavenumbers:  8050. - 12850. cm-1, ATM      1
 LEVEL PRESSURE   UPWARD FLUX   DIFDOWN FLUX  DIRDOWN FLUX  DOWNWARD FLUX   NET FLUX    HEATING RATE
          mb          W/m2          W/m2          W/m2        W/m2          W/m2       degree/day
  59    0.1000      119.7526        0.0000      344.8128      344.8128     225.060211       0.00000
  58    0.1400      119.7526        0.0001      344.8127      344.8128     225.060211       0.00000
  57    0.1970      119.7525        0.0003      344.8125      344.8127     225.060211      -0.00000
  56    0.2760      119.7525        0.0005      344.8121      344.8127     225.060211       0.00000
  55    0.3870      119.7524        0.0009      344.8117      344.8126     225.060211       0.00000
  54    0.5430      119.7522        0.0013      344.8111      344.8124     225.060211      -0.00000
  53    0.7620      119.7520        0.0020      344.8102      344.8122     225.060211       0.00000
  52     1.070      119.7517        0.0029      344.8090      344.8120     225.060211      -0.00000
  51     1.500      119.7513        0.0042      344.8073      344.8116     225.060211      -0.00000
  50     2.100      119.7508        0.0060      344.8050      344.8110     225.060211      -0.00000
  49     2.950      119.7500        0.0086      344.8016      344.8102     225.060211       0.00000
  48     4.130      119.7490        0.0122      344.7970      344.8092     225.060211       0.00000
  47     5.800      119.7475        0.0172      344.7905      344.8077     225.060211      -0.00000
  46     8.130      119.7453        0.0242      344.7813      344.8056     225.060211       0.00000
  45     11.41      119.7424        0.0341      344.7685      344.8026     225.060211       0.00000
  44     16.01      119.7382        0.0479      344.7505      344.7984     225.060211      -0.00000
  43     22.46      119.7324        0.0673      344.7253      344.7926     225.060211       0.00000
  42     31.51      119.7242        0.0944      344.6900      344.7844     225.060211       0.00000
  41     44.20      119.7128        0.1325      344.6405      344.7730     225.060211       0.00000
  40     62.00      119.6967        0.1858      344.5712      344.7569     225.060211      -0.00000
  39     85.77      119.6753        0.2569      344.4786      344.7355     225.060211       0.00000
  38     109.5      119.6545        0.3280      344.3750      344.7030     225.048504       0.00416
  37     133.3      119.6338        0.3988      344.2720      344.6708     225.037074       0.00406
  36     157.1      119.6129        0.4698      344.1688      344.6386     225.025715       0.00403
  35     180.9      119.5921        0.5407      344.0632      344.6040     225.011913       0.00490
  34     204.7      119.5715        0.6113      343.9523      344.5637     224.992175       0.00700
  33     228.4      119.5512        0.6821      343.8309      344.5130     224.961782       0.01079
  32     252.2      119.5317        0.7528      343.6939      344.4467     224.915008       0.01660
  31     276.0      119.5129        0.8234      343.5440      344.3675     224.854577       0.02145
  30     299.8      119.4948        0.8939      343.3839      344.2779     224.783052       0.02538
  29     323.5      119.4772        0.9640      343.2207      344.1848     224.707553       0.02680
  28     347.3      119.4606        1.0346      343.0397      344.0743     224.613626       0.03335
  27     371.1      119.4489        1.1045      342.7861      343.8907     224.441764       0.06099
  26     394.9      119.4454        1.1740      342.4185      343.5925     224.147073       0.10458
  25     418.6      119.4482        1.2438      341.9892      343.2330     223.784733       0.12864
  24     442.4      119.4570        1.3125      341.5256      342.8381     223.381140       0.14329
  23     466.2      119.4737        1.3818      341.0097      342.3915     222.917849       0.16441
  22     489.9      119.5009        1.4504      340.4380      341.8884     222.387443       0.18823
  21     513.7      119.5409        1.5179      339.8104      341.3284     221.787482       0.21301
  20     537.5      119.5978        1.5861      339.1057      340.6918     221.093989       0.24611
  19     561.3      119.6742        1.6533      338.3318      339.9851     220.310929       0.27801
  18     585.0      119.7736        1.7192      337.4848      339.2040     219.430362       0.31263
  17     608.8      119.9014        1.7851      336.5477      338.3329     218.431452       0.35450
  16     632.6      120.0542        1.8506      335.5598      337.4104     217.356284       0.38156
  15     656.4      120.2339        1.9152      334.5230      336.4382     216.204279       0.40900
  14     680.1      120.4438        1.9789      333.4376      335.4165     214.972659       0.43727
  13     703.9      120.6852        2.0427      332.3096      334.3523     213.667141       0.46331
  12     727.7      120.9517        2.1058      331.1780      333.2838     212.332163       0.47376
  11     751.5      121.2470        2.1685      330.0362      332.2047     210.957780       0.48795
  10     775.2      121.5725        2.2305      328.8885      331.1189     209.546484       0.50085
   9     799.0      121.9333        2.2926      327.7266      330.0192     208.085915       0.51855
   8     822.8      122.3244        2.3542      326.5746      328.9289     206.604440       0.52575
   7     846.6      122.7501        2.4155      325.4279      327.8434     205.093355       0.53649
   6     870.4      123.2128        2.4763      324.2873      326.7637     203.550911       0.54739
   5     894.1      123.7150        2.5367      323.1551      325.6918     201.976794       0.55886
   4     917.9      124.2460        2.5974      322.0562      324.6537     200.407660       0.55710
   3     941.7      124.7975        2.6583      321.0056      323.6639     198.866339       0.54699
   2     965.5      125.3685        2.7194      320.0022      322.7215     197.353088       0.53703
   1     989.2      125.9637        2.7805      319.0377      321.8182     195.854457       0.53184
   0    1013.0      126.5836        2.8419      318.1105      320.9524     194.368782       0.52746



 Wavenumbers: 12850. - 16000. cm-1, ATM      1
 LEVEL PRESSURE   UPWARD FLUX   DIFDOWN FLUX  DIRDOWN FLUX  DOWNWARD FLUX   NET FLUX    HEATING RATE
          mb          W/m2          W/m2          W/m2        W/m2          W/m2       degree/day
  59    0.1000      179.0290        0.0000      216.0557      216.0557      37.026702       0.00000
  58    0.1400      179.0294        0.0004      216.0525      216.0528      37.023471       0.68174
  57    0.1970      179.0300        0.0009      216.0478      216.0488      37.018786       0.69364
  56    0.2760      179.0310        0.0016      216.0414      216.0431      37.012025       0.72226
  55    0.3870      179.0330        0.0027      216.0324      216.0351      37.002104       0.75429
  54    0.5430      179.0364        0.0041      216.0197      216.0238      36.987404       0.79519
  53    0.7620      179.0424        0.0062      216.0018      216.0080      36.965566       0.84153
  52     1.070      179.0525        0.0090      215.9777      215.9867      36.934138       0.86112
  51     1.500      179.0713        0.0130      215.9432      215.9562      36.884919       0.96597
  50     2.100      179.1025        0.0186      215.8962      215.9148      36.812290       1.02155
  49     2.950      179.1514        0.0264      215.8336      215.8600      36.708656       1.02892
  48     4.130      179.2226        0.0374      215.7533      215.7907      36.568157       1.00483
  47     5.800      179.3212        0.0528      215.6523      215.7051      36.383869       0.93128
  46     8.130      179.4540        0.0744      215.5245      215.5989      36.144976       0.86526
  45     11.41      179.6279        0.1047      215.3607      215.4653      35.837411       0.79134
  44     16.01      179.8539        0.1471      215.1463      215.2933      35.439457       0.73009
  43     22.46      180.1564        0.2064      214.8559      215.0623      34.905922       0.69807
  42     31.51      180.5654        0.2893      214.4581      214.7474      34.182044       0.67502
  41     44.20      181.0906        0.4054      213.9314      214.3368      33.246201       0.62236
  40     62.00      181.7077        0.5677      213.2742      213.8419      32.134183       0.52722
  39     85.77      182.2539        0.7846      212.5864      213.3711      31.117138       0.36108
  38     109.5      182.6772        1.0039      212.0205      213.0244      30.347182       0.27336
  37     133.3      182.9889        1.2222      211.5369      212.7591      29.770238       0.20475
  36     157.1      183.2227        1.4413      211.1108      212.5520      29.329320       0.15647
  35     180.9      183.3947        1.6603      210.7294      212.3897      28.995007       0.11869
  34     204.7      183.5437        1.8782      210.3678      212.2460      28.702358       0.10386
  33     228.4      183.6859        2.0966      210.0124      212.1090      28.423044       0.09917
  32     252.2      183.8214        2.3144      209.6617      211.9761      28.154786       0.09520
  31     276.0      183.9457        2.5322      209.3170      211.8492      27.903504       0.08921
  30     299.8      184.0589        2.7494      208.9777      211.7272      27.668245       0.08349
  29     323.5      184.1592        2.9655      208.6465      211.6120      27.452749       0.07651
  28     347.3      184.2540        3.1830      208.3156      211.4985      27.244487       0.07394
  27     371.1      184.3484        3.3989      207.9854      211.3843      27.035859       0.07404
  26     394.9      184.4448        3.6144      207.6535      211.2679      26.823064       0.07552
  25     418.6      184.5436        3.8311      207.3184      211.1495      26.605974       0.07707
  24     442.4      184.6432        4.0450      206.9867      211.0317      26.388429       0.07724
  23     466.2      184.7478        4.2611      206.6498      210.9110      26.163142       0.07995
  22     489.9      184.8576        4.4756      206.3132      210.7888      25.931204       0.08231
  21     513.7      184.9731        4.6877      205.9768      210.6645      25.691418       0.08513
  20     537.5      185.0984        4.9029      205.6323      210.5351      25.436689       0.09040
  19     561.3      185.2319        5.1161      205.2867      210.4028      25.170875       0.09437
  18     585.0      185.3742        5.3268      204.9407      210.2675      24.893314       0.09854
  17     608.8      185.5296        5.5394      204.5864      210.1258      24.596251       0.10542
  16     632.6      185.6957        5.7516      204.2288      209.9804      24.284730       0.11055
  15     656.4      185.8727        5.9626      203.8693      209.8319      23.959230       0.11556
  14     680.1      186.0609        6.1718      203.5085      209.6803      23.619385       0.12066
  13     703.9      186.2628        6.3826      203.1418      209.5244      23.261608       0.12697
  12     727.7      186.4745        6.5919      202.7756      209.3675      22.892980       0.13082
  11     751.5      186.6977        6.8006      202.4081      209.2088      22.511080       0.13559
  10     775.2      186.9321        7.0080      202.0408      209.0487      22.116653       0.13998
   9     799.0      187.1809        7.2166      201.6693      208.8859      21.704997       0.14615
   8     822.8      187.4407        7.4240      201.2988      208.7228      21.282186       0.15005
   7     846.6      187.7129        7.6309      200.9283      208.5591      20.846228       0.15478
   6     870.4      187.9976        7.8368      200.5584      208.3952      20.397538       0.15923
   5     894.1      188.2954        8.0415      200.1894      208.2309      19.935565       0.16402
   4     917.9      188.6058        8.2476      199.8200      208.0676      19.461769       0.16821
   3     941.7      188.9261        8.4533      199.4537      207.9070      18.980926       0.17064
   2     965.5      189.2568        8.6591      199.0904      207.7495      18.492705       0.17326
   1     989.2      189.5992        8.8647      198.7300      207.5947      17.995507       0.17645
   0    1013.0      189.9549        9.0708      198.3715      207.4423      17.487389       0.18040



 Wavenumbers: 16000. - 22650. cm-1, ATM      1
 LEVEL PRESSURE   UPWARD FLUX   DIFDOWN FLUX  DIRDOWN FLUX  DOWNWARD FLUX   NET FLUX    HEATING RATE
          mb          W/m2          W/m2          W/m2        W/m2          W/m2       degree/day
  59    0.1000      292.8819        0.0000      344.4769      344.4769      51.594984       0.00000
  58    0.1400      292.8831        0.0020      344.4746      344.4766      51.593449       0.32371
  57    0.1970      292.8852        0.0049      344.4710      344.4760      51.590757       0.39865
  56    0.2760      292.8887        0.0090      344.4657      344.4746      51.585880       0.52097
  55    0.3870      292.8950        0.0146      344.4574      344.4720      51.576984       0.67638
  54    0.5430      292.9060        0.0225      344.4444      344.4669      51.560868       0.87179
  53    0.7620      292.9251        0.0337      344.4239      344.4576      51.532561       1.09080
  52     1.070      292.9569        0.0491      344.3923      344.4414      51.484475       1.31755
  51     1.500      293.0154        0.0709      344.3394      344.4103      51.394906       1.75787
  50     2.100      293.1124        0.1013      344.2562      344.3575      51.245085       2.10727
  49     2.950      293.2639        0.1439      344.1303      344.2742      51.010324       2.33080
  48     4.130      293.4841        0.2037      343.9491      344.1528      50.668695       2.44327
  47     5.800      293.7892        0.2874      343.6979      343.9853      50.196058       2.38841
  46     8.130      294.1998        0.4048      343.3568      343.7616      49.561857       2.29705
  45     11.41      294.7384        0.5694      342.9023      343.4717      48.733342       2.13170
  44     16.01      295.4389        0.7998      342.3005      343.1002      47.661362       1.96665
  43     22.46      296.3782        1.1220      341.4868      342.6089      46.230732       1.87183
  42     31.51      297.6514        1.5721      340.3806      341.9527      44.301274       1.79922
  41     44.20      299.2955        2.2015      338.9262      341.1278      41.832286       1.64193
  40     62.00      301.2416        3.0810      337.1171      340.1981      38.956477       1.36345
  39     85.77      302.9907        4.2547      335.2103      339.4650      36.474220       0.88128
  38     109.5      304.1967        5.4288      333.6239      339.0527      34.855939       0.57454
  37     133.3      305.0974        6.5959      332.2206      338.8165      33.719160       0.40342
  36     157.1      305.7830        7.7653      330.9396      338.7049      32.921906       0.28293
  35     180.9      306.2955        8.9328      329.7588      338.6916      32.396069       0.18669
  34     204.7      306.7393       10.0924      328.6236      338.7160      31.976725       0.14882
  33     228.4      307.1580       11.2521      327.5030      338.7551      31.597068       0.13479
  32     252.2      307.5506       12.4070      326.4013      338.8083      31.257679       0.12044
  31     276.0      307.9053       13.5593      325.3232      338.8825      30.977193       0.09958
  30     299.8      308.2215       14.7073      324.2702      338.9775      30.756013       0.07849
  29     323.5      308.4946       15.8470      323.2478      339.0948      30.600231       0.05531
  28     347.3      308.7438       16.9925      322.2344      339.2270      30.483150       0.04157
  27     371.1      308.9799       18.1279      321.2361      339.3639      30.384016       0.03518
  26     394.9      309.2069       19.2593      320.2456      339.5049      30.297966       0.03054
  25     418.6      309.4262       20.3949      319.2563      339.6511      30.224972       0.02592
  24     442.4      309.6350       21.5136      318.2854      339.7990      30.164030       0.02164
  23     466.2      309.8414       22.6426      317.3079      339.9505      30.109101       0.01949
  22     489.9      310.0447       23.7608      316.3402      340.1009      30.056211       0.01877
  21     513.7      310.2448       24.8654      315.3844      340.2498      30.004972       0.01819
  20     537.5      310.4469       25.9839      314.4167      340.4006      29.953665       0.01821
  19     561.3      310.6468       27.0913      313.4584      340.5498      29.902999       0.01799
  18     585.0      310.8440       28.1842      312.5126      340.6968      29.852708       0.01785
  17     608.8      311.0431       29.2857      311.5589      340.8446      29.801494       0.01818
  16     632.6      311.2415       30.3839      310.6078      340.9917      29.750198       0.01820
  15     656.4      311.4388       31.4747      309.6629      341.1376      29.698830       0.01824
  14     680.1      311.6344       32.5552      308.7265      341.2817      29.647282       0.01830
  13     703.9      311.8315       33.6428      307.7837      341.4265      29.595044       0.01854
  12     727.7      312.0268       34.7217      306.8483      341.5701      29.543218       0.01839
  11     751.5      312.2213       35.7962      305.9166      341.7128      29.491498       0.01836
  10     775.2      312.4143       36.8622      304.9921      341.8543      29.439963       0.01829
   9     799.0      312.6083       37.9336      304.0626      341.9962      29.387897       0.01849
   8     822.8      312.8010       38.9973      303.1396      342.1369      29.335962       0.01843
   7     846.6      312.9929       40.0567      302.2202      342.2769      29.283973       0.01846
   6     870.4      313.1838       41.1097      301.3060      342.4157      29.231976       0.01845
   5     894.1      313.3734       42.1555      300.3979      342.5535      29.180087       0.01842
   4     917.9      313.5631       43.2055      299.4864      342.6919      29.128774       0.01822
   3     941.7      313.7514       44.2518      298.5783      342.8301      29.078686       0.01778
   2     965.5      313.9384       45.2956      297.6727      342.9683      29.029863       0.01733
   1     989.2      314.1240       46.3355      296.7707      343.1062      28.982163       0.01693
   0    1013.0      314.3089       47.3758      295.8686      343.2444      28.935502       0.01657



 Wavenumbers: 22650. - 29000. cm-1, ATM      1
 LEVEL PRESSURE   UPWARD FLUX   DIFDOWN FLUX  DIRDOWN FLUX  DOWNWARD FLUX   NET FLUX    HEATING RATE
          mb          W/m2          W/m2          W/m2        W/m2          W/m2       degree/day
  59    0.1000      118.4527        0.0000      129.9930      129.9930      11.540370       0.00000
  58    0.1400      118.4530        0.0024      129.9910      129.9934      11.540370       0.00000
  57    0.1970      118.4536        0.0058      129.9882      129.9939      11.540370       0.00000
  56    0.2760      118.4543        0.0105      129.9842      129.9947      11.540370      -0.00000
  55    0.3870      118.4553        0.0170      129.9786      129.9957      11.540370       0.00000
  54    0.5430      118.4567        0.0263      129.9708      129.9971      11.540370       0.00000
  53    0.7620      118.4588        0.0394      129.9597      129.9992      11.540370       0.00000
  52     1.070      118.4616        0.0573      129.9446      130.0019      11.540370       0.00000
  51     1.500      118.4655        0.0828      129.9230      130.0059      11.540370      -0.00000
  50     2.100      118.4710        0.1183      129.8930      130.0114      11.540370       0.00000
  49     2.950      118.4787        0.1682      129.8509      130.0191      11.540370      -0.00000
  48     4.130      118.4895        0.2381      129.7918      130.0299      11.540370       0.00000
  47     5.800      118.5047        0.3359      129.7091      130.0450      11.540370      -0.00000
  46     8.130      118.5259        0.4731      129.5931      130.0663      11.540370      -0.00000
  45     11.41      118.5556        0.6655      129.4305      130.0960      11.540370       0.00000
  44     16.01      118.5972        0.9346      129.2030      130.1376      11.540370      -0.00000
  43     22.46      118.6554        1.3108      128.8849      130.1957      11.540370       0.00000
  42     31.51      118.7364        1.8359      128.4409      130.2768      11.540370      -0.00000
  41     44.20      118.8493        2.5689      127.8208      130.3897      11.540370       0.00000
  40     62.00      119.0062        3.5890      126.9576      130.5466      11.540370       0.00000
  39     85.77      119.2131        4.9381      125.8153      130.7535      11.540370      -0.00000
  38     109.5      119.4175        6.2749      124.6829      130.9578      11.540370       0.00000
  37     133.3      119.6181        7.5918      123.5667      131.1585      11.540370      -0.00000
  36     157.1      119.8168        8.8996      122.4576      131.3571      11.540370       0.00000
  35     180.9      120.0126       10.1933      121.3597      131.5530      11.540370       0.00000
  34     204.7      120.2050       11.4686      120.2768      131.7454      11.540370      -0.00000
  33     228.4      120.3954       12.7350      119.2008      131.9358      11.540370      -0.00000
  32     252.2      120.5831       13.9874      118.1361      132.1235      11.540370       0.00000
  31     276.0      120.7683       15.2276      117.0811      132.3086      11.540370      -0.00000
  30     299.8      120.9507       16.4537      116.0373      132.4911      11.540370       0.00000
  29     323.5      121.1298       17.6613      115.0088      132.6701      11.540370      -0.00000
  28     347.3      121.3077       18.8660      113.9821      132.8481      11.540370       0.00000
  27     371.1      121.4822       20.0515      112.9711      133.0226      11.540370       0.00000
  26     394.9      121.6542       21.2246      111.9699      133.1946      11.540370      -0.00000
  25     418.6      121.8250       22.3938      110.9716      133.3654      11.540370       0.00000
  24     442.4      121.9914       23.5375      109.9943      133.5318      11.540370       0.00000
  23     466.2      122.1576       24.6838      109.0142      133.6979      11.540370       0.00000
  22     489.9      122.3204       25.8114      108.0494      133.8607      11.540370      -0.00000
  21     513.7      122.4795       26.9177      107.1021      134.0198      11.540370       0.00000
  20     537.5      122.6388       28.0306      106.1486      134.1792      11.540370       0.00000
  19     561.3      122.7949       29.1249      105.2104      134.3353      11.540370      -0.00000
  18     585.0      122.9473       30.1976      104.2901      134.4876      11.540370       0.00000
  17     608.8      123.0992       31.2715      103.3680      134.6395      11.540370      -0.00000
  16     632.6      123.2489       32.3351      102.4542      134.7893      11.540370       0.00000
  15     656.4      123.3960       33.3844      101.5520      134.9364      11.540370       0.00000
  14     680.1      123.5402       34.4168      100.6637      135.0805      11.540370      -0.00000
  13     703.9      123.6836       35.4491       99.7749      135.2240      11.540370       0.00000
  12     727.7      123.8243       36.4662       98.8984      135.3647      11.540370       0.00000
  11     751.5      123.9628       37.4724       98.0308      135.5032      11.540370      -0.00000
  10     775.2      124.0987       38.4639       97.1752      135.6391      11.540370       0.00000
   9     799.0      124.2337       39.4537       96.3204      135.7741      11.540370      -0.00000
   8     822.8      124.3662       40.4299       95.4767      135.9066      11.540370      -0.00000
   7     846.6      124.4966       41.3955       94.6414      136.0370      11.540370       0.00000
   6     870.4      124.6248       42.3490       93.8161      136.1651      11.540370       0.00000
   5     894.1      124.7505       43.2896       93.0013      136.2909      11.540370      -0.00000
   4     917.9      124.8753       44.2276       92.1880      136.4157      11.540370       0.00000
   3     941.7      124.9981       45.1559       91.3826      136.5385      11.540370       0.00000
   2     965.5      125.1192       46.0758       90.5838      136.6596      11.540370       0.00000
   1     989.2      125.2383       46.9859       89.7928      136.7787      11.540370      -0.00000
   0    1013.0      125.3561       47.8902       89.0063      136.8964      11.540370       0.00000



 Wavenumbers: 29000. - 38000. cm-1, ATM      1
 LEVEL PRESSURE   UPWARD FLUX   DIFDOWN FLUX  DIRDOWN FLUX  DOWNWARD FLUX   NET FLUX    HEATING RATE
          mb          W/m2          W/m2          W/m2        W/m2          W/m2       degree/day
  59    0.1000       18.5382        0.0000       45.8410       45.8410      27.302771       0.00000
  58    0.1400       18.5380        0.0014       45.8124       45.8138      27.275783       5.69373
  57    0.1970       18.5378        0.0034       45.7630       45.7664      27.228643       6.97939
  56    0.2760       18.5377        0.0061       45.6756       45.6817      27.143952       9.04712
  55    0.3870       18.5381        0.0099       45.5202       45.5301      26.991966      11.55518
  54    0.5430       18.5393        0.0151       45.2494       45.2645      26.725194      14.43162
  53    0.7620       18.5421        0.0223       44.8019       44.8242      26.282127      17.07353
  52     1.070       18.5474        0.0316       44.1127       44.1443      25.596909      18.77487
  51     1.500       18.5587        0.0441       43.0236       43.0677      24.509037      21.35049
  50     2.100       18.5785        0.0605       41.6137       41.6741      23.095656      19.87955
  49     2.950       18.6103        0.0825       40.0524       40.1349      21.524551      15.59856
  48     4.130       18.6572        0.1125       38.5211       38.6336      19.976394      11.07214
  47     5.800       18.7225        0.1534       37.0685       37.2218      18.499312       7.46426
  46     8.130       18.8115        0.2092       35.6638       35.8730      17.061556       5.20748
  45     11.41       18.9299        0.2854       34.2912       34.5766      15.646642       3.64045
  44     16.01       19.0874        0.3891       32.9306       33.3196      14.232257       2.59483
  43     22.46       19.3066        0.5292       31.5205       32.0497      12.743079       1.94843
  42     31.51       19.6232        0.7181       30.0332       30.7512      11.128009       1.50606
  41     44.20       20.0687        0.9745       28.5104       29.4849       9.416204       1.13839
  40     62.00       20.6563        1.3262       27.0176       28.3439       7.687507       0.81959
  39     85.77       21.2414        1.8000       25.7484       27.5484       6.306930       0.49015
  38     109.5       21.6788        2.2758       24.8316       27.1073       5.428473       0.31188
  37     133.3       22.0230        2.7472       24.0874       26.8346       4.811551       0.21894
  36     157.1       22.2922        3.2187       23.4494       26.6682       4.376024       0.15456
  35     180.9       22.4927        3.6890       22.8897       26.5787       4.086042       0.10295
  34     204.7       22.6665        4.1502       22.3688       26.5190       3.852486       0.08289
  33     228.4       22.8323        4.6036       21.8677       26.4713       3.638995       0.07580
  32     252.2       22.9888        5.0481       21.3871       26.4352       3.446406       0.06835
  31     276.0       23.1291        5.4865       20.9284       26.4149       3.285786       0.05703
  30     299.8       23.2517        5.9188       20.4908       26.4096       3.157872       0.04539
  29     323.5       23.3533        6.3447       20.0755       26.4202       3.066812       0.03233
  28     347.3       23.4423        6.7680       19.6721       26.4401       2.997777       0.02451
  27     371.1       23.5244        7.1813       19.2821       26.4634       2.939002       0.02086
  26     394.9       23.6011        7.5869       18.9022       26.4891       2.888040       0.01809
  25     418.6       23.6726        7.9880       18.5295       26.5175       2.844933       0.01530
  24     442.4       23.7383        8.3772       18.1703       26.5475       2.809175       0.01270
  23     466.2       23.8012        8.7637       17.8148       26.5785       2.777298       0.01131
  22     489.9       23.8617        9.1398       17.4689       26.6087       2.746988       0.01076
  21     513.7       23.9198        9.5049       17.1331       26.6379       2.718151       0.01024
  20     537.5       23.9770        9.8682       16.7988       26.6670       2.689966       0.01000
  19     561.3       24.0322       10.2216       16.4735       26.6951       2.662980       0.00958
  18     585.0       24.0851       10.5643       16.1580       26.7223       2.637186       0.00916
  17     608.8       24.1370       10.9038       15.8452       26.7490       2.612007       0.00894
  16     632.6       24.1874       11.2365       15.5386       26.7751       2.587705       0.00862
  15     656.4       24.2360       11.5611       15.2393       26.8004       2.564320       0.00830
  14     680.1       24.2829       11.8771       14.9476       26.8247       2.541844       0.00798
  13     703.9       24.3287       12.1897       14.6589       26.8487       2.519914       0.00778
  12     727.7       24.3729       12.4945       14.3773       26.8718       2.498834       0.00748
  11     751.5       24.4157       12.7927       14.1015       26.8942       2.478481       0.00723
  10     775.2       24.4569       13.0835       13.8323       26.9158       2.458869       0.00696
   9     799.0       24.4972       13.3706       13.5662       26.9368       2.439617       0.00683
   8     822.8       24.5362       13.6507       13.3063       26.9570       2.420817       0.00667
   7     846.6       24.5740       13.9247       13.0517       26.9764       2.402392       0.00654
   6     870.4       24.6106       14.1923       12.8027       26.9950       2.384353       0.00640
   5     894.1       24.6460       14.4534       12.5594       27.0128       2.366727       0.00626
   4     917.9       24.6806       14.7109       12.3191       27.0300       2.349377       0.00616
   3     941.7       24.7141       14.9630       12.0835       27.0465       2.332442       0.00601
   2     965.5       24.7465       15.2100       11.8523       27.0624       2.315892       0.00587
   1     989.2       24.7779       15.4518       11.6258       27.0776       2.299730       0.00574
   0    1013.0       24.8083       15.6894       11.4028       27.0922       2.283874       0.00563



 Wavenumbers: 38000. - 50000. cm-1, ATM      1
 LEVEL PRESSURE   UPWARD FLUX   DIFDOWN FLUX  DIRDOWN FLUX  DOWNWARD FLUX   NET FLUX    HEATING RATE
          mb          W/m2          W/m2          W/m2        W/m2          W/m2       degree/day
  59    0.1000        0.0071        0.0000        2.8274        2.8274       2.820310       0.00000
  58    0.1400        0.0069        0.0002        2.8117        2.8119       2.804962       3.23819
  57    0.1970        0.0067        0.0006        2.7847        2.7853       2.778617       3.90054
  56    0.2760        0.0064        0.0010        2.7376        2.7386       2.732280       4.94994
  55    0.3870        0.0059        0.0016        2.6554        2.6570       2.651051       6.17569
  54    0.5430        0.0054        0.0023        2.5157        2.5180       2.512567       7.49155
  53    0.7620        0.0048        0.0030        2.2939        2.2969       2.292063       8.49713
  52     1.070        0.0041        0.0035        1.9750        1.9785       1.974353       8.70518
  51     1.500        0.0034        0.0035        1.5280        1.5315       1.528056       8.75899
  50     2.100        0.0028        0.0032        1.0563        1.0595       1.056640       6.63058
  49     2.950        0.0023        0.0027        0.6751        0.6778       0.675550       3.78362
  48     4.130        0.0018        0.0024        0.4270        0.4294       0.427568       1.77352
  47     5.800        0.0015        0.0021        0.2730        0.2751       0.273612       0.77800
  46     8.130        0.0011        0.0018        0.1726        0.1744       0.173232       0.36357
  45     11.41        0.0008        0.0015        0.1066        0.1081       0.107323       0.16958
  44     16.01        0.0005        0.0011        0.0634        0.0646       0.064035       0.07942
  43     22.46        0.0003        0.0008        0.0344        0.0351       0.034809       0.03824
  42     31.51        0.0002        0.0004        0.0158        0.0162       0.016037       0.01751
  41     44.20        0.0001        0.0002        0.0059        0.0060       0.005957       0.00670
  40     62.00        0.0000        0.0001        0.0017        0.0018       0.001752       0.00199
  39     85.77        0.0000        0.0000        0.0004        0.0005       0.000459       0.00046
  38     109.5        0.0000        0.0000        0.0001        0.0001       0.000140       0.00011
  37     133.3        0.0000        0.0000        0.0000        0.0000       0.000046       0.00003
  36     157.1        0.0000        0.0000        0.0000        0.0000       0.000016       0.00001
  35     180.9        0.0000        0.0000        0.0000        0.0000       0.000006       0.00000
  34     204.7        0.0000        0.0000        0.0000        0.0000       0.000002       0.00000
  33     228.4        0.0000        0.0000        0.0000        0.0000       0.000001       0.00000
  32     252.2        0.0000        0.0000        0.0000        0.0000       0.000000       0.00000
  31     276.0        0.0000        0.0000        0.0000        0.0000       0.000000       0.00000
  30     299.8        0.0000        0.0000        0.0000        0.0000       0.000000       0.00000
  29     323.5        0.0000        0.0000        0.0000        0.0000       0.000000       0.00000
  28     347.3        0.0000        0.0000        0.0000        0.0000       0.000000       0.00000
  27     371.1        0.0000        0.0000        0.0000        0.0000       0.000000       0.00000
  26     394.9        0.0000        0.0000        0.0000        0.0000       0.000000       0.00000
  25     418.6        0.0000        0.0000        0.0000        0.0000       0.000000       0.00000
  24     442.4        0.0000        0.0000        0.0000        0.0000       0.000000       0.00000
  23     466.2        0.0000        0.0000        0.0000        0.0000       0.000000       0.00000
  22     489.9        0.0000        0.0000        0.0000        0.0000       0.000000       0.00000
  21     513.7        0.0000        0.0000        0.0000        0.0000       0.000000       0.00000
  20     537.5        0.0000        0.0000        0.0000        0.0000       0.000000       0.00000
  19     561.3        0.0000        0.0000        0.0000        0.0000       0.000000       0.00000
  18     585.0        0.0000        0.0000        0.0000        0.0000       0.000000       0.00000
  17     608.8        0.0000        0.0000        0.0000        0.0000       0.000000       0.00000
  16     632.6        0.0000        0.0000        0.0000        0.0000       0.000000       0.00000
  15     656.4        0.0000        0.0000        0.0000        0.0000       0.000000       0.00000
  14     680.1        0.0000        0.0000        0.0000        0.0000       0.000000       0.00000
  13     703.9        0.0000        0.0000        0.0000        0.0000       0.000000       0.00000
  12     727.7        0.0000        0.0000        0.0000        0.0000       0.000000       0.00000
  11     751.5        0.0000        0.0000        0.0000        0.0000       0.000000       0.00000
  10     775.2        0.0000        0.0000        0.0000        0.0000       0.000000       0.00000
   9     799.0        0.0000        0.0000        0.0000        0.0000       0.000000       0.00000
   8     822.8        0.0000        0.0000        0.0000        0.0000       0.000000       0.00000
   7     846.6        0.0000        0.0000        0.0000        0.0000       0.000000       0.00000
   6     870.4        0.0000        0.0000        0.0000        0.0000       0.000000       0.00000
   5     894.1        0.0000        0.0000        0.0000        0.0000       0.000000       0.00000
   4     917.9        0.0000        0.0000        0.0000        0.0000       0.000000       0.00000
   3     941.7        0.0000        0.0000        0.0000        0.0000       0.000000       0.00000
   2     965.5        0.0000        0.0000        0.0000        0.0000       0.000000       0.00000
   1     989.2        0.0000        0.0000        0.0000        0.0000       0.000000       0.00000
   0    1013.0        0.0000        0.0000        0.0000        0.0000       0.000000       0.00000



 Wavenumbers:   820. -  2600. cm-1, ATM      1
 LEVEL PRESSURE   UPWARD FLUX   DIFDOWN FLUX  DIRDOWN FLUX  DOWNWARD FLUX   NET FLUX    HEATING RATE
          mb          W/m2          W/m2          W/m2        W/m2          W/m2       degree/day
  59    0.1000        2.2262        0.0000       13.2264       13.2264      11.000198       0.00000
  58    0.1400        2.2262        0.0000       13.2159       13.2159      10.989745       2.20544
  57    0.1970        2.2262        0.0000       13.2115       13.2115      10.985338       0.65238
  56    0.2760        2.2262        0.0000       13.2061       13.2061      10.979897       0.58125
  55    0.3870        2.2262        0.0000       13.1997       13.1997      10.973469       0.48875
  54    0.5430        2.2262        0.0000       13.1923       13.1923      10.966114       0.39787
  53    0.7620        2.2262        0.0000       13.1835       13.1835      10.957307       0.33938
  52     1.070        2.2262        0.0000       13.1725       13.1725      10.946309       0.30135
  51     1.500        2.2262        0.0000       13.1571       13.1571      10.930876       0.30289
  50     2.100        2.2262        0.0000       13.1354       13.1354      10.909186       0.30507
  49     2.950        2.2263        0.0000       13.1048       13.1048      10.878513       0.30454
  48     4.130        2.2263        0.0000       13.0622       13.0622      10.835929       0.30455
  47     5.800        2.2263        0.0000       13.0045       13.0045      10.778185       0.29181
  46     8.130        2.2264        0.0000       12.9281       12.9281      10.701690       0.27706
  45     11.41        2.2265        0.0000       12.8285       12.8285      10.601959       0.25660
  44     16.01        2.2266        0.0000       12.7006       12.7006      10.473946       0.23485
  43     22.46        2.2268        0.0000       12.5504       12.5504      10.323591       0.19672
  42     31.51        2.2271        0.0000       12.4060       12.4060      10.178887       0.13494
  41     44.20        2.2276        0.0000       12.2951       12.2951      10.067523       0.07406
  40     62.00        2.2282        0.0000       12.2025       12.2025       9.974356       0.04417
  39     85.77        2.2290        0.0000       12.0933       12.0933       9.864288       0.03908
  38     109.5        2.2299        0.0000       11.9868       11.9868       9.756898       0.03813
  37     133.3        2.2308        0.0000       11.8812       11.8812       9.650413       0.03779
  36     157.1        2.2317        0.0000       11.7804       11.7804       9.548697       0.03610
  35     180.9        2.2326        0.0000       11.6791       11.6791       9.446490       0.03629
  34     204.7        2.2336        0.0000       11.5767       11.5767       9.343141       0.03668
  33     228.4        2.2344        0.0000       11.4716       11.4716       9.237150       0.03763
  32     252.2        2.2354        0.0000       11.3537       11.3537       9.118313       0.04217
  31     276.0        2.2363        0.0000       11.2343       11.2343       8.997976       0.04272
  30     299.8        2.2373        0.0000       11.1123       11.1123       8.874998       0.04364
  29     323.5        2.2383        0.0000       10.9975       10.9975       8.759277       0.04108
  28     347.3        2.2394        0.0000       10.8740       10.8741       8.634720       0.04422
  27     371.1        2.2411        0.0000       10.6929       10.6930       8.451884       0.06489
  26     394.9        2.2439        0.0001       10.4471       10.4472       8.203279       0.08823
  25     418.6        2.2473        0.0001       10.2084       10.2084       7.961111       0.08598
  24     442.4        2.2512        0.0001        9.9957        9.9957       7.744548       0.07689
  23     466.2        2.2558        0.0001        9.7932        9.7932       7.537448       0.07350
  22     489.9        2.2612        0.0001        9.5905        9.5905       7.329346       0.07385
  21     513.7        2.2676        0.0001        9.3781        9.3782       7.110620       0.07766
  20     537.5        2.2752        0.0001        9.1447        9.1447       6.869512       0.08557
  19     561.3        2.2841        0.0001        8.8937        8.8938       6.609655       0.09226
  18     585.0        2.2944        0.0001        8.6313        8.6314       6.336964       0.09681
  17     608.8        2.3065        0.0001        8.3632        8.3633       6.056759       0.09944
  16     632.6        2.3199        0.0001        8.1120        8.1121       5.792204       0.09389
  15     656.4        2.3346        0.0001        7.8845        7.8845       5.549899       0.08603
  14     680.1        2.3508        0.0001        7.6843        7.6843       5.333529       0.07682
  13     703.9        2.3684        0.0001        7.5130        7.5131       5.144692       0.06702
  12     727.7        2.3871        0.0001        7.3727        7.3728       4.985754       0.05640
  11     751.5        2.4069        0.0001        7.2568        7.2569       4.849947       0.04822
  10     775.2        2.4279        0.0001        7.1605        7.1605       4.732599       0.04165
   9     799.0        2.4503        0.0001        7.0787        7.0788       4.628435       0.03698
   8     822.8        2.4736        0.0001        7.0091        7.0092       4.535596       0.03295
   7     846.6        2.4978        0.0001        6.9481        6.9482       4.450355       0.03026
   6     870.4        2.5230        0.0001        6.8932        6.8933       4.370346       0.02839
   5     894.1        2.5492        0.0001        6.8425        6.8426       4.293423       0.02731
   4     917.9        2.5767        0.0001        6.7947        6.7948       4.218079       0.02675
   3     941.7        2.6054        0.0001        6.7491        6.7492       4.143772       0.02637
   2     965.5        2.6353        0.0001        6.7054        6.7055       4.070199       0.02611
   1     989.2        2.6664        0.0001        6.6629        6.6630       3.996544       0.02614
   0    1013.0        2.6990        0.0001        6.6215        6.6216       3.922639       0.02624

  Modules and versions used in this calculation:

       rrtmg_sw.1col.f90:  $Revision$                    rrtmg_sw_init.f90:  $Revision$        
     rrtmgsw_cldprop.f90:  $Revision$                  rrtmgsw_cldprmc.f90:  NOT USED          
     rrtmg_sw_reftra.f90:  $Revision$                  rrtmg_sw_spcvrt.f90:  NOT USED          
     rrtmg_sw_spcvmc.f90:  NOT USED                    rrtmgsw_setcoef.f90:  NOT USED          
     rrtmg_sw_taumol.f90:  $Revision$                  rrtmg_sw_vrtqdr.f90:  NOT USED          
                rrtatm.f:  NOT USED                             util_xxx.f:  NOT USED          
                 extra.f:  NOT USED                       rrtmg_sw_k_g.f90:  $Revision$        

