

 Wavenumbers:   820. - 50000. cm-1, ATM      1
 LEVEL PRESSURE   UPWARD FLUX   DIFDOWN FLUX  DIRDOWN FLUX  DOWNWARD FLUX   NET FLUX    HEATING RATE
          mb          W/m2          W/m2          W/m2        W/m2          W/m2       degree/day
  59    0.1000      867.9989        0.0000     1360.8491     1360.8491     492.850213       0.00000
  58    0.1400      868.0007        0.0068     1360.7700     1360.7768     492.776072      15.64215
  57    0.1970      868.0038        0.0164     1360.6656     1360.6820     492.678134      14.50019
  56    0.2760      868.0094        0.0297     1360.4973     1360.5270     492.517624      17.14644
  55    0.3870      868.0194        0.0483     1360.2162     1360.2644     492.245001      20.72707
  54    0.5430      868.0375        0.0741     1359.7485     1359.8226     491.785086      24.88004
  53    0.7620      868.0690        0.1103     1359.0015     1359.1118     491.042825      28.60298
  52     1.070      868.1219        0.1588     1357.8888     1358.0475     489.925637      30.61075
  51     1.500      868.2195        0.2263     1356.1988     1356.4251     488.205574      33.75783
  50     2.100      868.3817        0.3189     1354.0972     1354.4161     486.034386      30.53828
  49     2.950      868.6351        0.4481     1351.8433     1352.2914     483.656290      23.61070
  48     4.130      869.0040        0.6284     1349.6358     1350.2642     481.260204      17.13638
  47     5.800      869.5159        0.8800     1347.4520     1348.3320     478.816081      12.35108
  46     8.130      870.2072        1.2315     1345.1751     1346.4066     476.199399       9.47749
  45     11.41      871.1188        1.7224     1342.7079     1344.4303     473.311487       7.43034
  44     16.01      872.3123        2.4066     1339.9281     1342.3347     470.022385       6.03418
  43     22.46      873.9246        3.3588     1336.6282     1339.9871     466.062480       5.18112
  42     31.51      876.1331        4.6820     1332.6189     1337.3009     461.167758       4.56434
  41     44.20      879.0337        6.5241     1327.8040     1334.3281     455.294307       3.90598
  40     62.00      882.5624        9.0885     1322.1310     1331.2195     448.657178       3.14673
  39     85.77      885.8868       12.5039     1316.0883     1328.5922     442.705476       2.11305
  38     109.5      888.3583       15.9128     1310.8699     1326.7827     438.424350       1.51994
  37     133.3      890.2938       19.2892     1306.1391     1325.4283     435.134572       1.16749
  36     157.1      891.8437       22.6608     1301.7285     1324.3892     432.545501       0.91882
  35     180.9      893.0743       26.0153     1297.5383     1323.5536     430.479357       0.73355
  34     204.7      894.1781       29.3329     1293.4065     1322.7394     428.561263       0.68070
  33     228.4      895.2401       32.6349     1289.2005     1321.8354     426.595232       0.69801
  32     252.2      896.2572       35.9085     1284.8824     1320.7909     424.533706       0.73160
  31     276.0      897.2055       39.1613     1280.5653     1319.7266     422.521117       0.71454
  30     299.8      898.0825       42.3894     1276.2839     1318.6733     420.590772       0.68505
  29     323.5      898.8761       45.5818     1272.1283     1317.7102     418.834035       0.62370
  28     347.3      899.6285       48.7779     1267.8782     1316.6560     417.027468       0.64139
  27     371.1      900.3658       51.9313     1263.0375     1314.9687     414.602940       0.86043
  26     394.9      901.1056       55.0597     1257.3469     1312.4066     411.301049       1.17179
  25     418.6      901.8476       58.1861     1251.3901     1309.5763     407.728651       1.26832
  24     442.4      902.5806       61.2528     1245.4620     1306.7149     404.134306       1.27611
  23     466.2      903.3321       64.3342     1239.3762     1303.7103     400.378190       1.33299
  22     489.9      904.1017       67.3721     1233.1568     1300.5289     396.427253       1.40212
  21     513.7      904.8937       70.3597     1226.8116     1297.1712     392.277519       1.47329
  20     537.5      905.7363       73.3715     1220.1629     1293.5344     387.798069       1.58969
  19     561.3      906.6204       76.3398     1213.3419     1289.6817     383.061336       1.68170
  18     585.0      907.5527       79.2559     1206.3658     1285.6217     378.069007       1.77244
  17     608.8      908.5617       82.1820     1199.1415     1281.3234     372.761731       1.88347
  16     632.6      909.6318       85.0866     1191.9457     1277.0323     367.400574       1.90259
  15     656.4      910.7657       87.9589     1184.8126     1272.7715     362.005755       1.91534
  14     680.1      911.9699       90.7917     1177.7612     1268.5529     356.583022       1.92525
  13     703.9      913.2589       93.6312     1170.7810     1264.4123     351.153384       1.92689
  12     727.7      914.6078       96.4362     1164.0452     1260.4814     345.873650       1.87369
  11     751.5      916.0292       99.2181     1157.4888     1256.7069     340.677688       1.84474
  10     775.2      917.5252      101.9668     1151.1183     1253.0851     335.559946       1.81621
   9     799.0      919.1184      104.7181     1144.8574     1249.5755     330.457115       1.81168
   8     822.8      920.7895      107.4388     1138.7985     1246.2373     325.447846       1.77771
   7     846.6      922.5524      110.1376     1132.9030     1243.0406     320.488143       1.76086
   6     870.4      924.4145      112.8098     1127.1604     1239.9702     315.555687       1.75045
   5     894.1      926.3844      115.4532     1121.5673     1237.0205     310.636150       1.74660
   4     917.9      928.4463      118.0975     1116.1582     1234.2558     305.809514       1.71362
   3     941.7      930.5776      120.7230     1110.9747     1231.6977     301.120072       1.66421
   2     965.5      932.7810      123.3328     1105.9959     1229.3287     296.547750       1.62264
   1     989.2      935.0738      125.9237     1101.1905     1227.1142     292.040346       1.59961
   0    1013.0      937.4677      128.5064     1096.5367     1225.0431     287.575394       1.58521



 Wavenumbers:  2600. -  3250. cm-1, ATM      1
 LEVEL PRESSURE   UPWARD FLUX   DIFDOWN FLUX  DIRDOWN FLUX  DOWNWARD FLUX   NET FLUX    HEATING RATE
          mb          W/m2          W/m2          W/m2        W/m2          W/m2       degree/day
  59    0.1000        0.6704        0.0000       11.9937       11.9937      11.323355       0.00000
  58    0.1400        0.6704        0.0000       11.9937       11.9937      11.323326       0.00613
  57    0.1970        0.6704        0.0000       11.9936       11.9936      11.323285       0.00614
  56    0.2760        0.6704        0.0000       11.9936       11.9936      11.323225       0.00633
  55    0.3870        0.6704        0.0000       11.9935       11.9935      11.323138       0.00668
  54    0.5430        0.6704        0.0000       11.9934       11.9934      11.323000       0.00746
  53    0.7620        0.6704        0.0000       11.9931       11.9931      11.322771       0.00882
  52     1.070        0.6704        0.0000       11.9927       11.9927      11.322386       0.01053
  51     1.500        0.6704        0.0000       11.9921       11.9921      11.321719       0.01309
  50     2.100        0.6704        0.0000       11.9910       11.9910      11.320602       0.01572
  49     2.950        0.6704        0.0000       11.9891       11.9891      11.318781       0.01808
  48     4.130        0.6704        0.0000       11.9863       11.9863      11.315969       0.02011
  47     5.800        0.6704        0.0000       11.9822       11.9822      11.311833       0.02090
  46     8.130        0.6704        0.0000       11.9764       11.9764      11.306026       0.02103
  45     11.41        0.6704        0.0000       11.9686       11.9686      11.298244       0.02002
  44     16.01        0.6704        0.0000       11.9587       11.9587      11.288369       0.01812
  43     22.46        0.6704        0.0000       11.9469       11.9469      11.276513       0.01551
  42     31.51        0.6704        0.0000       11.9326       11.9326      11.262207       0.01334
  41     44.20        0.6704        0.0000       11.9144       11.9144      11.243967       0.01213
  40     62.00        0.6704        0.0000       11.8882       11.8882      11.217761       0.01242
  39     85.77        0.6705        0.0000       11.8479       11.8480      11.177443       0.01431
  38     109.5        0.6707        0.0000       11.8004       11.8005      11.129799       0.01692
  37     133.3        0.6708        0.0001       11.7500       11.7501      11.079234       0.01794
  36     157.1        0.6710        0.0001       11.6981       11.6982      11.027180       0.01847
  35     180.9        0.6712        0.0001       11.6460       11.6461      10.974868       0.01857
  34     204.7        0.6715        0.0001       11.5944       11.5945      10.923040       0.01839
  33     228.4        0.6718        0.0001       11.5432       11.5433      10.871542       0.01828
  32     252.2        0.6721        0.0001       11.4924       11.4925      10.820427       0.01814
  31     276.0        0.6725        0.0001       11.4428       11.4429      10.770428       0.01775
  30     299.8        0.6730        0.0001       11.3949       11.3950      10.722040       0.01717
  29     323.5        0.6735        0.0001       11.3497       11.3498      10.676315       0.01623
  28     347.3        0.6741        0.0001       11.3050       11.3051      10.631031       0.01608
  27     371.1        0.6748        0.0001       11.2558       11.2560      10.581131       0.01771
  26     394.9        0.6758        0.0001       11.1996       11.1998      10.523955       0.02029
  25     418.6        0.6770        0.0002       11.1410       11.1412      10.464198       0.02122
  24     442.4        0.6783        0.0002       11.0819       11.0821      10.403787       0.02145
  23     466.2        0.6799        0.0002       11.0197       11.0199      10.340015       0.02263
  22     489.9        0.6816        0.0002       10.9543       10.9545      10.272849       0.02384
  21     513.7        0.6836        0.0002       10.8847       10.8848      10.201235       0.02543
  20     537.5        0.6860        0.0002       10.8081       10.8083      10.122297       0.02801
  19     561.3        0.6887        0.0002       10.7252       10.7254      10.036689       0.03039
  18     585.0        0.6918        0.0002       10.6351       10.6353       9.943447       0.03310
  17     608.8        0.6954        0.0002       10.5360       10.5362       9.840729       0.03645
  16     632.6        0.6995        0.0002       10.4314       10.4316       9.732083       0.03856
  15     656.4        0.7041        0.0002       10.3217       10.3219       9.617857       0.04055
  14     680.1        0.7091        0.0002       10.2071       10.2073       9.498215       0.04248
  13     703.9        0.7147        0.0002       10.0880       10.0882       9.373504       0.04426
  12     727.7        0.7208        0.0002        9.9686        9.9688       9.248051       0.04452
  11     751.5        0.7274        0.0002        9.8489        9.8491       9.121701       0.04486
  10     775.2        0.7345        0.0002        9.7297        9.7299       8.995409       0.04482
   9     799.0        0.7423        0.0002        9.6105        9.6108       8.868432       0.04508
   8     822.8        0.7507        0.0002        9.4940        9.4942       8.743536       0.04432
   7     846.6        0.7598        0.0002        9.3798        9.3801       8.620309       0.04375
   6     870.4        0.7696        0.0003        9.2682        9.2685       8.498855       0.04310
   5     894.1        0.7803        0.0003        9.1595        9.1597       8.379408       0.04241
   4     917.9        0.7919        0.0003        9.0552        9.0554       8.263588       0.04112
   3     941.7        0.8041        0.0003        8.9568        8.9571       8.152928       0.03927
   2     965.5        0.8172        0.0003        8.8639        8.8642       8.046932       0.03762
   1     989.2        0.8313        0.0003        8.7757        8.7760       7.944620       0.03631
   0    1013.0        0.8466        0.0003        8.6919        8.6922       7.845558       0.03517



 Wavenumbers:  3250. -  4000. cm-1, ATM      1
 LEVEL PRESSURE   UPWARD FLUX   DIFDOWN FLUX  DIRDOWN FLUX  DOWNWARD FLUX   NET FLUX    HEATING RATE
          mb          W/m2          W/m2          W/m2        W/m2          W/m2       degree/day
  59    0.1000        0.9921        0.0000       20.2197       20.2197      19.227563       0.00000
  58    0.1400        0.9921        0.0000       20.2044       20.2044      19.212333       3.21320
  57    0.1970        0.9921        0.0000       20.1937       20.1937      19.201627       1.58506
  56    0.2760        0.9921        0.0000       20.1841       20.1841      19.192012       1.02710
  55    0.3870        0.9921        0.0000       20.1739       20.1739      19.181848       0.77273
  54    0.5430        0.9921        0.0000       20.1632       20.1632      19.171105       0.58121
  53    0.7620        0.9921        0.0000       20.1518       20.1518      19.159693       0.43976
  52     1.070        0.9921        0.0000       20.1397       20.1397      19.147564       0.33233
  51     1.500        0.9921        0.0000       20.1251       20.1251      19.133042       0.28500
  50     2.100        0.9921        0.0000       20.1072       20.1072      19.115144       0.25174
  49     2.950        0.9921        0.0000       20.0845       20.0845      19.092449       0.22533
  48     4.130        0.9921        0.0000       20.0557       20.0557      19.063573       0.20651
  47     5.800        0.9921        0.0000       20.0186       20.0186      19.026492       0.18738
  46     8.130        0.9921        0.0000       19.9695       19.9695      18.977448       0.17764
  45     11.41        0.9921        0.0000       19.9014       19.9015      18.909373       0.17515
  44     16.01        0.9921        0.0000       19.8019       19.8019      18.809806       0.18267
  43     22.46        0.9921        0.0000       19.6535       19.6535      18.661466       0.19409
  42     31.51        0.9921        0.0000       19.4354       19.4354      18.443386       0.20336
  41     44.20        0.9920        0.0001       19.1347       19.1348      18.142731       0.19994
  40     62.00        0.9920        0.0001       18.7612       18.7613      17.769303       0.17705
  39     85.77        0.9920        0.0001       18.3477       18.3478      17.355763       0.14682
  38     109.5        0.9920        0.0002       17.9632       17.9633      16.971314       0.13649
  37     133.3        0.9920        0.0002       17.6005       17.6007      16.608677       0.12869
  36     157.1        0.9920        0.0002       17.2513       17.2515      16.259451       0.12393
  35     180.9        0.9920        0.0002       16.9036       16.9039      15.911840       0.12341
  34     204.7        0.9921        0.0003       16.5410       16.5413      15.549205       0.12869
  33     228.4        0.9922        0.0003       16.1412       16.1415      15.149361       0.14196
  32     252.2        0.9923        0.0003       15.6954       15.6957      14.703418       0.15826
  31     276.0        0.9926        0.0003       15.2546       15.2550      14.262405       0.15657
  30     299.8        0.9929        0.0003       14.8282       14.8286      13.835718       0.15142
  29     323.5        0.9932        0.0004       14.4370       14.4374      13.444168       0.13901
  28     347.3        0.9937        0.0004       14.0406       14.0410      13.047351       0.14088
  27     371.1        0.9946        0.0004       13.5432       13.5436      12.549054       0.17684
  26     394.9        0.9962        0.0004       12.9292       12.9296      11.933377       0.21849
  25     418.6        0.9984        0.0004       12.3153       12.3156      11.317204       0.21876
  24     442.4        1.0012        0.0004       11.7330       11.7334      10.732150       0.20771
  23     466.2        1.0048        0.0004       11.1535       11.1539      10.149010       0.20695
  22     489.9        1.0095        0.0004       10.5687       10.5691       9.559577       0.20918
  21     513.7        1.0154        0.0004        9.9833        9.9837       8.968263       0.20994
  20     537.5        1.0232        0.0004        9.3938        9.3942       8.370977       0.21197
  19     561.3        1.0330        0.0004        8.8191        8.8195       7.786470       0.20752
  18     585.0        1.0454        0.0004        8.2685        8.2688       7.223451       0.19989
  17     608.8        1.0611        0.0003        7.7400        7.7404       6.679333       0.19310
  16     632.6        1.0798        0.0003        7.2613        7.2616       6.181830       0.17656
  15     656.4        1.1020        0.0003        6.8268        6.8271       5.725072       0.16216
  14     680.1        1.1284        0.0003        6.4282        6.4285       5.300156       0.15086
  13     703.9        1.1592        0.0003        6.0622        6.0625       4.903329       0.14083
  12     727.7        1.1941        0.0003        5.7336        5.7339       4.539753       0.12903
  11     751.5        1.2340        0.0003        5.4331        5.4334       4.199492       0.12080
  10     775.2        1.2793        0.0003        5.1570        5.1573       3.877985       0.11410
   9     799.0        1.3315        0.0003        4.8998        4.9001       3.568659       0.10982
   8     822.8        1.3904        0.0003        4.6636        4.6638       3.273466       0.10476
   7     846.6        1.4573        0.0003        4.4446        4.4449       2.987628       0.10148
   6     870.4        1.5336        0.0003        4.2408        4.2411       2.707452       0.09943
   5     894.1        1.6209        0.0003        4.0505        4.0508       2.429870       0.09855
   4     917.9        1.7184        0.0003        3.8764        3.8766       2.158197       0.09645
   3     941.7        1.8260        0.0003        3.7183        3.7186       1.892605       0.09425
   2     965.5        1.9443        0.0003        3.5747        3.5749       1.630651       0.09296
   1     989.2        2.0760        0.0003        3.4425        3.4428       1.366769       0.09365
   0    1013.0        2.2238        0.0003        3.3208        3.3210       1.097272       0.09568



 Wavenumbers:  4000. -  4650. cm-1, ATM      1
 LEVEL PRESSURE   UPWARD FLUX   DIFDOWN FLUX  DIRDOWN FLUX  DOWNWARD FLUX   NET FLUX    HEATING RATE
          mb          W/m2          W/m2          W/m2        W/m2          W/m2       degree/day
  59    0.1000        1.6624        0.0000       23.7440       23.7440      22.081623       0.00000
  58    0.1400        1.6624        0.0000       23.7440       23.7440      22.081619       0.00078
  57    0.1970        1.6624        0.0000       23.7440       23.7440      22.081614       0.00078
  56    0.2760        1.6624        0.0000       23.7440       23.7440      22.081606       0.00081
  55    0.3870        1.6624        0.0000       23.7440       23.7440      22.081595       0.00085
  54    0.5430        1.6624        0.0000       23.7439       23.7439      22.081577       0.00095
  53    0.7620        1.6624        0.0000       23.7439       23.7439      22.081548       0.00113
  52     1.070        1.6624        0.0000       23.7439       23.7439      22.081499       0.00136
  51     1.500        1.6624        0.0000       23.7438       23.7438      22.081412       0.00170
  50     2.100        1.6624        0.0000       23.7436       23.7436      22.081265       0.00207
  49     2.950        1.6624        0.0000       23.7434       23.7434      22.081021       0.00243
  48     4.130        1.6624        0.0000       23.7430       23.7430      22.080630       0.00279
  47     5.800        1.6623        0.0000       23.7424       23.7424      22.080026       0.00305
  46     8.130        1.6623        0.0000       23.7414       23.7415      22.079108       0.00332
  45     11.41        1.6623        0.0000       23.7400       23.7401      22.077732       0.00354
  44     16.01        1.6623        0.0001       23.7380       23.7380      22.075682       0.00376
  43     22.46        1.6623        0.0001       23.7349       23.7350      22.072644       0.00397
  42     31.51        1.6624        0.0001       23.7302       23.7303      22.067974       0.00435
  41     44.20        1.6624        0.0002       23.7228       23.7230      22.060567       0.00493
  40     62.00        1.6625        0.0002       23.7110       23.7112      22.048737       0.00561
  39     85.77        1.6627        0.0003       23.6934       23.6937      22.031013       0.00629
  38     109.5        1.6630        0.0004       23.6736       23.6741      22.011026       0.00710
  37     133.3        1.6634        0.0005       23.6533       23.6538      21.990367       0.00733
  36     157.1        1.6639        0.0006       23.6324       23.6330      21.969104       0.00755
  35     180.9        1.6645        0.0007       23.6110       23.6117      21.947233       0.00776
  34     204.7        1.6651        0.0008       23.5889       23.5896      21.924563       0.00805
  33     228.4        1.6658        0.0009       23.5656       23.5665      21.900665       0.00848
  32     252.2        1.6666        0.0010       23.5409       23.5418      21.875237       0.00902
  31     276.0        1.6675        0.0011       23.5150       23.5161      21.848582       0.00946
  30     299.8        1.6685        0.0011       23.4883       23.4895      21.820982       0.00979
  29     323.5        1.6695        0.0012       23.4614       23.4627      21.793140       0.00989
  28     347.3        1.6707        0.0013       23.4331       23.4344      21.763708       0.01045
  27     371.1        1.6721        0.0014       23.3997       23.4011      21.729016       0.01231
  26     394.9        1.6737        0.0015       23.3586       23.3601      21.686314       0.01515
  25     418.6        1.6757        0.0016       23.3132       23.3147      21.639082       0.01677
  24     442.4        1.6778        0.0017       23.2654       23.2671      21.589330       0.01766
  23     466.2        1.6801        0.0018       23.2135       23.2152      21.535070       0.01926
  22     489.9        1.6828        0.0018       23.1567       23.1586      21.475798       0.02103
  21     513.7        1.6857        0.0019       23.0946       23.0965      21.410762       0.02309
  20     537.5        1.6891        0.0020       23.0240       23.0260      21.336918       0.02621
  19     561.3        1.6928        0.0021       22.9455       22.9475      21.254702       0.02919
  18     585.0        1.6970        0.0021       22.8581       22.8603      21.163325       0.03244
  17     608.8        1.7016        0.0022       22.7601       22.7623      21.060712       0.03642
  16     632.6        1.7066        0.0023       22.6559       22.6582      20.951554       0.03874
  15     656.4        1.7121        0.0024       22.5464       22.5487      20.836586       0.04082
  14     680.1        1.7182        0.0024       22.4325       22.4350      20.716790       0.04253
  13     703.9        1.7247        0.0025       22.3155       22.3180      20.593224       0.04385
  12     727.7        1.7317        0.0026       22.1997       22.2023      20.470546       0.04354
  11     751.5        1.7392        0.0026       22.0850       22.0877      20.348436       0.04335
  10     775.2        1.7472        0.0027       21.9722       21.9749      20.227698       0.04285
   9     799.0        1.7558        0.0028       21.8604       21.8631      20.107337       0.04273
   8     822.8        1.7649        0.0028       21.7519       21.7547      19.989798       0.04171
   7     846.6        1.7746        0.0029       21.6461       21.6490      19.874473       0.04094
   6     870.4        1.7848        0.0030       21.5430       21.5460      19.761182       0.04021
   5     894.1        1.7957        0.0030       21.4426       21.4456      19.649872       0.03952
   4     917.9        1.8072        0.0031       21.3464       21.3495      19.542368       0.03817
   3     941.7        1.8190        0.0032       21.2554       21.2586      19.439611       0.03647
   2     965.5        1.8312        0.0032       21.1691       21.1723      19.341087       0.03496
   1     989.2        1.8440        0.0033       21.0864       21.0897      19.245733       0.03384
   0    1013.0        1.8573        0.0034       21.0070       21.0104      19.153044       0.03291



 Wavenumbers:  4650. -  5150. cm-1, ATM      1
 LEVEL PRESSURE   UPWARD FLUX   DIFDOWN FLUX  DIRDOWN FLUX  DOWNWARD FLUX   NET FLUX    HEATING RATE
          mb          W/m2          W/m2          W/m2        W/m2          W/m2       degree/day
  59    0.1000        0.8623        0.0000       22.4748       22.4748      21.612456       0.00000
  58    0.1400        0.8623        0.0000       22.4740       22.4740      21.611672       0.16541
  57    0.1970        0.8623        0.0000       22.4729       22.4729      21.610569       0.16327
  56    0.2760        0.8623        0.0000       22.4714       22.4714      21.609054       0.16184
  55    0.3870        0.8623        0.0000       22.4693       22.4693      21.606963       0.15894
  54    0.5430        0.8623        0.0000       22.4664       22.4664      21.604089       0.15551
  53    0.7620        0.8623        0.0000       22.4625       22.4625      21.600131       0.15254
  52     1.070        0.8623        0.0000       22.4573       22.4573      21.594963       0.14158
  51     1.500        0.8623        0.0000       22.4504       22.4504      21.588025       0.13617
  50     2.100        0.8623        0.0000       22.4415       22.4415      21.579152       0.12480
  49     2.950        0.8623        0.0000       22.4304       22.4304      21.568042       0.11031
  48     4.130        0.8623        0.0000       22.4170       22.4171      21.554728       0.09522
  47     5.800        0.8623        0.0000       22.4018       22.4019      21.539552       0.07669
  46     8.130        0.8623        0.0000       22.3853       22.3854      21.523057       0.05974
  45     11.41        0.8623        0.0001       22.3678       22.3679      21.505596       0.04493
  44     16.01        0.8623        0.0001       22.3486       22.3487      21.486404       0.03521
  43     22.46        0.8623        0.0001       22.3245       22.3246      21.462316       0.03152
  42     31.51        0.8623        0.0002       22.2887       22.2889      21.426583       0.03332
  41     44.20        0.8624        0.0003       22.2307       22.2310      21.368619       0.03855
  40     62.00        0.8625        0.0004       22.1365       22.1368      21.274335       0.04470
  39     85.77        0.8627        0.0005       21.9958       21.9963      21.133561       0.04998
  38     109.5        0.8631        0.0006       21.8485       21.8491      20.986009       0.05239
  37     133.3        0.8636        0.0007       21.7023       21.7031      20.839485       0.05200
  36     157.1        0.8641        0.0009       21.5601       21.5609      20.696806       0.05063
  35     180.9        0.8648        0.0010       21.4243       21.4253      20.560567       0.04837
  34     204.7        0.8655        0.0011       21.2964       21.2975      20.432006       0.04562
  33     228.4        0.8663        0.0012       21.1748       21.1761      20.309765       0.04340
  32     252.2        0.8672        0.0013       21.0596       21.0609      20.193709       0.04119
  31     276.0        0.8682        0.0015       20.9498       20.9513      20.083082       0.03928
  30     299.8        0.8693        0.0016       20.8448       20.8464      19.977085       0.03762
  29     323.5        0.8705        0.0017       20.7442       20.7459      19.875422       0.03609
  28     347.3        0.8717        0.0018       20.6453       20.6471      19.775406       0.03551
  27     371.1        0.8732        0.0019       20.5471       20.5490      19.675795       0.03535
  26     394.9        0.8749        0.0020       20.4464       20.4484      19.573553       0.03628
  25     418.6        0.8768        0.0021       20.3434       20.3455      19.468701       0.03723
  24     442.4        0.8789        0.0023       20.2398       20.2420      19.363076       0.03750
  23     466.2        0.8813        0.0024       20.1320       20.1344      19.253052       0.03905
  22     489.9        0.8840        0.0025       20.0220       20.0244      19.140458       0.03996
  21     513.7        0.8868        0.0026       19.9091       19.9117      19.024830       0.04105
  20     537.5        0.8901        0.0027       19.7898       19.7924      18.902340       0.04347
  19     561.3        0.8937        0.0028       19.6658       19.6685      18.774814       0.04528
  18     585.0        0.8977        0.0028       19.5374       19.5402      18.642576       0.04695
  17     608.8        0.9021        0.0029       19.4021       19.4051      18.502955       0.04955
  16     632.6        0.9070        0.0030       19.2628       19.2658      18.358823       0.05115
  15     656.4        0.9123        0.0031       19.1199       19.1230      18.210729       0.05258
  14     680.1        0.9180        0.0032       18.9739       18.9770      18.059004       0.05387
  13     703.9        0.9243        0.0033       18.8242       18.8275      17.903164       0.05531
  12     727.7        0.9311        0.0033       18.6744       18.6777      17.746652       0.05554
  11     751.5        0.9383        0.0034       18.5239       18.5273      17.588938       0.05599
  10     775.2        0.9461        0.0035       18.3734       18.3769      17.430783       0.05613
   9     799.0        0.9545        0.0035       18.2216       18.2251      17.270556       0.05689
   8     822.8        0.9636        0.0036       18.0709       18.0745      17.110966       0.05664
   7     846.6        0.9733        0.0037       17.9212       17.9249      16.951610       0.05658
   6     870.4        0.9837        0.0037       17.7728       17.7765      16.792819       0.05635
   5     894.1        0.9949        0.0038       17.6260       17.6298      16.634862       0.05608
   4     917.9        1.0070        0.0039       17.4818       17.4857      16.478700       0.05544
   3     941.7        1.0197        0.0039       17.3418       17.3458      16.326088       0.05416
   2     965.5        1.0332        0.0040       17.2061       17.2100      16.176891       0.05295
   1     989.2        1.0475        0.0041       17.0741       17.0782      16.030700       0.05188
   0    1013.0        1.0628        0.0041       16.9457       16.9498      15.887080       0.05099



 Wavenumbers:  5150. -  6150. cm-1, ATM      1
 LEVEL PRESSURE   UPWARD FLUX   DIFDOWN FLUX  DIRDOWN FLUX  DOWNWARD FLUX   NET FLUX    HEATING RATE
          mb          W/m2          W/m2          W/m2        W/m2          W/m2       degree/day
  59    0.1000        3.5248        0.0000       56.3444       56.3444      52.819642       0.00000
  58    0.1400        3.5248        0.0000       56.3442       56.3442      52.819478       0.03448
  57    0.1970        3.5248        0.0000       56.3440       56.3440      52.819234       0.03615
  56    0.2760        3.5248        0.0000       56.3436       56.3436      52.818882       0.03764
  55    0.3870        3.5247        0.0000       56.3431       56.3431      52.818374       0.03864
  54    0.5430        3.5247        0.0000       56.3424       56.3424      52.817652       0.03906
  53    0.7620        3.5247        0.0000       56.3413       56.3414      52.816615       0.03994
  52     1.070        3.5247        0.0000       56.3399       56.3399      52.815194       0.03896
  51     1.500        3.5247        0.0000       56.3379       56.3379      52.813167       0.03978
  50     2.100        3.5247        0.0001       56.3350       56.3351      52.810346       0.03967
  49     2.950        3.5247        0.0001       56.3310       56.3311      52.806392       0.03926
  48     4.130        3.5247        0.0001       56.3255       56.3256      52.800874       0.03946
  47     5.800        3.5247        0.0002       56.3177       56.3179      52.793211       0.03873
  46     8.130        3.5247        0.0002       56.3070       56.3073      52.782592       0.03846
  45     11.41        3.5246        0.0003       56.2923       56.2926      52.767963       0.03764
  44     16.01        3.5246        0.0004       56.2722       56.2726      52.748000       0.03662
  43     22.46        3.5246        0.0006       56.2450       56.2456      52.721039       0.03528
  42     31.51        3.5246        0.0008       56.2089       56.2098      52.685199       0.03342
  41     44.20        3.5246        0.0012       56.1621       56.1633      52.638702       0.03092
  40     62.00        3.5246        0.0017       56.1027       56.1044      52.579755       0.02795
  39     85.77        3.5248        0.0023       56.0319       56.0342      52.509377       0.02499
  38     109.5        3.5250        0.0029       55.9680       55.9710      52.445981       0.02251
  37     133.3        3.5253        0.0036       55.9098       55.9133      52.388085       0.02055
  36     157.1        3.5255        0.0042       55.8550       55.8592      52.333652       0.01932
  35     180.9        3.5259        0.0048       55.7930       55.7978      52.271935       0.02191
  34     204.7        3.5262        0.0055       55.7124       55.7178      52.191643       0.02849
  33     228.4        3.5266        0.0061       55.6020       55.6080      52.081493       0.03911
  32     252.2        3.5270        0.0067       55.4529       55.4596      51.932615       0.05283
  31     276.0        3.5274        0.0073       55.2803       55.2876      51.760174       0.06122
  30     299.8        3.5279        0.0079       55.0895       55.0974      51.569522       0.06766
  29     323.5        3.5284        0.0084       54.8944       54.9028      51.374448       0.06926
  28     347.3        3.5289        0.0090       54.6567       54.6657      51.136812       0.08437
  27     371.1        3.5296        0.0095       54.2412       54.2508      50.721137       0.14752
  26     394.9        3.5306        0.0100       53.5857       53.5957      50.065070       0.23283
  25     418.6        3.5319        0.0104       52.8703       52.8807      49.348826       0.25429
  24     442.4        3.5333        0.0108       52.1719       52.1827      48.649398       0.24832
  23     466.2        3.5351        0.0113       51.4684       51.4797      47.944573       0.25013
  22     489.9        3.5372        0.0116       50.7478       50.7594      47.222232       0.25635
  21     513.7        3.5397        0.0120       49.9961       50.0081      46.468340       0.26766
  20     537.5        3.5429        0.0123       49.1767       49.1890      45.646096       0.29180
  19     561.3        3.5467        0.0126       48.3014       48.3140      44.767276       0.31201
  18     585.0        3.5513        0.0128       47.3776       47.3904      43.839095       0.32954
  17     608.8        3.5570        0.0130       46.4102       46.4232      42.866201       0.34526
  16     632.6        3.5637        0.0132       45.4623       45.4755      41.911833       0.33869
  15     656.4        3.5714        0.0135       44.5438       44.5573      40.985847       0.32876
  14     680.1        3.5804        0.0137       43.6576       43.6712      40.090861       0.31775
  13     703.9        3.5907        0.0139       42.8093       42.8232      39.232474       0.30463
  12     727.7        3.6023        0.0141       42.0226       42.0367      38.434458       0.28320
  11     751.5        3.6153        0.0143       41.2849       41.2993      37.683925       0.26646
  10     775.2        3.6301        0.0145       40.5952       40.6098      36.979696       0.24992
   9     799.0        3.6469        0.0148       39.9458       39.9606      36.313654       0.23647
   8     822.8        3.6659        0.0150       39.3476       39.3626      35.696715       0.21894
   7     846.6        3.6874        0.0153       38.7931       38.8083      35.120942       0.20442
   6     870.4        3.7120        0.0155       38.2785       38.2940      34.582057       0.19124
   5     894.1        3.7404        0.0158       37.8012       37.8170      34.076618       0.17945
   4     917.9        3.7727        0.0161       37.3685       37.3846      33.611874       0.16500
   3     941.7        3.8092        0.0164       36.9805       36.9969      33.187697       0.15053
   2     965.5        3.8506        0.0167       36.6311       36.6477      32.797175       0.13859
   1     989.2        3.8983        0.0170       36.3135       36.3305      32.432186       0.12953
   0    1013.0        3.9538        0.0173       36.0246       36.0419      32.088110       0.12216



 Wavenumbers:  6150. -  7700. cm-1, ATM      1
 LEVEL PRESSURE   UPWARD FLUX   DIFDOWN FLUX  DIRDOWN FLUX  DOWNWARD FLUX   NET FLUX    HEATING RATE
          mb          W/m2          W/m2          W/m2        W/m2          W/m2       degree/day
  59    0.1000        9.0195        0.0000      104.2111      104.2111      95.191582       0.00000
  58    0.1400        9.0195        0.0000      104.2109      104.2109      95.191357       0.04746
  57    0.1970        9.0195        0.0000      104.2105      104.2105      95.191025       0.04917
  56    0.2760        9.0195        0.0000      104.2100      104.2101      95.190549       0.05080
  55    0.3870        9.0195        0.0000      104.2093      104.2094      95.189868       0.05183
  54    0.5430        9.0195        0.0001      104.2083      104.2084      95.188902       0.05226
  53    0.7620        9.0195        0.0001      104.2069      104.2070      95.187520       0.05326
  52     1.070        9.0194        0.0001      104.2049      104.2051      95.185631       0.05176
  51     1.500        9.0194        0.0002      104.2022      104.2023      95.182944       0.05272
  50     2.100        9.0193        0.0002      104.1983      104.1986      95.179215       0.05246
  49     2.950        9.0193        0.0003      104.1929      104.1933      95.173995       0.05182
  48     4.130        9.0192        0.0005      104.1854      104.1859      95.166717       0.05205
  47     5.800        9.0190        0.0007      104.1749      104.1756      95.156600       0.05113
  46     8.130        9.0188        0.0010      104.1604      104.1613      95.142538       0.05093
  45     11.41        9.0185        0.0013      104.1402      104.1416      95.123054       0.05013
  44     16.01        9.0181        0.0019      104.1124      104.1143      95.096230       0.04921
  43     22.46        9.0175        0.0026      104.0744      104.0770      95.059528       0.04802
  42     31.51        9.0167        0.0037      104.0228      104.0265      95.009829       0.04634
  41     44.20        9.0156        0.0052      103.9542      103.9594      94.943855       0.04387
  40     62.00        9.0140        0.0073      103.8641      103.8714      94.857343       0.04102
  39     85.77        9.0120        0.0101      103.7520      103.7620      94.750045       0.03809
  38     109.5        9.0099        0.0128      103.6469      103.6597      94.649781       0.03560
  37     133.3        9.0079        0.0156      103.5479      103.5635      94.555530       0.03345
  36     157.1        9.0060        0.0184      103.4524      103.4707      94.464766       0.03221
  35     180.9        9.0040        0.0211      103.3451      103.3662      94.362210       0.03641
  34     204.7        9.0022        0.0238      103.2092      103.2330      94.230831       0.04662
  33     228.4        9.0004        0.0265      103.0258      103.0523      94.051885       0.06353
  32     252.2        8.9988        0.0292      102.7822      102.8114      93.812598       0.08492
  31     276.0        8.9974        0.0319      102.5058      102.5376      93.540221       0.09670
  30     299.8        8.9961        0.0345      102.2130      102.2475      93.251397       0.10250
  29     323.5        8.9949        0.0371      101.9275      101.9645      92.969629       0.10004
  28     347.3        8.9939        0.0396      101.5978      101.6374      92.643484       0.11579
  27     371.1        8.9938        0.0420      101.0501      101.0921      92.098387       0.19345
  26     394.9        8.9950        0.0442      100.1789      100.2231      91.228081       0.30886
  25     418.6        8.9973        0.0463       99.1572       99.2035      90.206125       0.36283
  24     442.4        9.0007        0.0482       98.0700       98.1182      89.117526       0.38649
  23     466.2        9.0055        0.0501       96.8922       96.9424      87.936876       0.41899
  22     489.9        9.0121        0.0519       95.6344       95.6863      86.674214       0.44810
  21     513.7        9.0209        0.0536       94.3200       94.3736      85.352636       0.46920
  20     537.5        9.0328        0.0551       92.9196       92.9747      83.941884       0.50065
  19     561.3        9.0482        0.0565       91.4603       91.5169      82.468711       0.52303
  18     585.0        9.0677        0.0578       89.9356       89.9934      80.925714       0.54782
  17     608.8        9.0924        0.0589       88.3220       88.3809      79.288509       0.58102
  16     632.6        9.1220        0.0600       86.7036       86.7636      77.641630       0.58445
  15     656.4        9.1568        0.0610       85.0902       85.1512      75.994481       0.58479
  14     680.1        9.1976        0.0619       83.4950       83.5569      74.359351       0.58053
  13     703.9        9.2449        0.0629       81.9356       81.9985      72.753668       0.56983
  12     727.7        9.2978        0.0638       80.4660       80.5298      71.232031       0.54000
  11     751.5        9.3573        0.0648       79.0672       79.1320      69.774648       0.51742
  10     775.2        9.4242        0.0657       77.7399       77.8056      68.381409       0.49444
   9     799.0        9.4998        0.0667       76.4683       76.5349      67.035122       0.47798
   8     822.8        9.5838        0.0676       75.2722       75.3398      65.756036       0.45393
   7     846.6        9.6776        0.0686       74.1413       74.2099      64.532339       0.43445
   6     870.4        9.7827        0.0696       73.0680       73.1376      63.354870       0.41787
   5     894.1        9.9011        0.0705       72.0505       72.1210      62.219916       0.40295
   4     917.9       10.0317        0.0715       71.1079       71.1795      61.147797       0.38064
   3     941.7       10.1740        0.0726       70.2451       70.3177      60.143771       0.35631
   2     965.5       10.3296        0.0737       69.4538       69.5275      59.197941       0.33566
   1     989.2       10.5021        0.0748       68.7211       68.7959      58.293799       0.32087
   0    1013.0       10.6944        0.0760       68.0413       68.1173      57.422910       0.30919



 Wavenumbers:  7700. -  8050. cm-1, ATM      1
 LEVEL PRESSURE   UPWARD FLUX   DIFDOWN FLUX  DIRDOWN FLUX  DOWNWARD FLUX   NET FLUX    HEATING RATE
          mb          W/m2          W/m2          W/m2        W/m2          W/m2       degree/day
  59    0.1000        7.4812        0.0000       24.6282       24.6282      17.146998       0.00000
  58    0.1400        7.4812        0.0000       24.6281       24.6281      17.146912       0.01813
  57    0.1970        7.4812        0.0000       24.6280       24.6280      17.146790       0.01803
  56    0.2760        7.4813        0.0000       24.6279       24.6279      17.146621       0.01808
  55    0.3870        7.4813        0.0000       24.6277       24.6277      17.146384       0.01803
  54    0.5430        7.4814        0.0000       24.6274       24.6275      17.146050       0.01803
  53    0.7620        7.4815        0.0000       24.6271       24.6271      17.145577       0.01824
  52     1.070        7.4817        0.0001       24.6266       24.6266      17.144932       0.01768
  51     1.500        7.4819        0.0001       24.6258       24.6259      17.144012       0.01804
  50     2.100        7.4822        0.0001       24.6248       24.6249      17.142733       0.01800
  49     2.950        7.4826        0.0002       24.6234       24.6236      17.140934       0.01786
  48     4.130        7.4832        0.0002       24.6214       24.6216      17.138412       0.01804
  47     5.800        7.4841        0.0003       24.6186       24.6189      17.134881       0.01784
  46     8.130        7.4852        0.0005       24.6147       24.6152      17.129927       0.01794
  45     11.41        7.4869        0.0007       24.6092       24.6098      17.122977       0.01788
  44     16.01        7.4892        0.0009       24.6015       24.6024      17.113242       0.01786
  43     22.46        7.4924        0.0013       24.5907       24.5920      17.099615       0.01783
  42     31.51        7.4970        0.0018       24.5757       24.5776      17.080554       0.01777
  41     44.20        7.5034        0.0026       24.5547       24.5573      17.053871       0.01774
  40     62.00        7.5126        0.0036       24.5255       24.5291      17.016578       0.01768
  39     85.77        7.5248        0.0050       24.4868       24.4918      16.966977       0.01761
  38     109.5        7.5373        0.0064       24.4484       24.4548      16.917449       0.01758
  37     133.3        7.5499        0.0078       24.4105       24.4182      16.868315       0.01744
  36     157.1        7.5627        0.0091       24.3727       24.3819      16.819193       0.01743
  35     180.9        7.5756        0.0105       24.3353       24.3458      16.770209       0.01739
  34     204.7        7.5887        0.0119       24.2984       24.3102      16.721535       0.01727
  33     228.4        7.6019        0.0132       24.2616       24.2748      16.672838       0.01729
  32     252.2        7.6154        0.0146       24.2251       24.2397      16.624286       0.01723
  31     276.0        7.6290        0.0159       24.1888       24.2048      16.575783       0.01722
  30     299.8        7.6427        0.0173       24.1529       24.1701      16.527408       0.01717
  29     323.5        7.6566        0.0186       24.1174       24.1360      16.479342       0.01706
  28     347.3        7.6708        0.0199       24.0818       24.1017      16.430968       0.01717
  27     371.1        7.6850        0.0213       24.0466       24.0679      16.382867       0.01707
  26     394.9        7.6995        0.0226       24.0117       24.0342      16.334707       0.01709
  25     418.6        7.7144        0.0239       23.9766       24.0005      16.286141       0.01724
  24     442.4        7.7292        0.0252       23.9421       23.9673      16.238125       0.01705
  23     466.2        7.7444        0.0266       23.9073       23.9339      16.189437       0.01728
  22     489.9        7.7599        0.0279       23.8729       23.9008      16.140902       0.01722
  21     513.7        7.7754        0.0292       23.8388       23.8680      16.092616       0.01714
  20     537.5        7.7914        0.0305       23.8043       23.8348      16.043328       0.01749
  19     561.3        7.8077        0.0318       23.7700       23.8018      15.994095       0.01748
  18     585.0        7.8241        0.0331       23.7360       23.7691      15.945001       0.01743
  17     608.8        7.8410        0.0344       23.7016       23.7360      15.894973       0.01775
  16     632.6        7.8583        0.0357       23.6672       23.7029      15.844577       0.01788
  15     656.4        7.8758        0.0370       23.6329       23.6699      15.794022       0.01795
  14     680.1        7.8936        0.0382       23.5987       23.6370      15.743379       0.01798
  13     703.9        7.9119        0.0395       23.5642       23.6038      15.691900       0.01827
  12     727.7        7.9303        0.0408       23.5299       23.5707      15.640416       0.01827
  11     751.5        7.9491        0.0421       23.4957       23.5378      15.588720       0.01835
  10     775.2        7.9680        0.0433       23.4616       23.5050      15.536953       0.01837
   9     799.0        7.9875        0.0446       23.4273       23.4719      15.484483       0.01863
   8     822.8        8.0071        0.0459       23.3932       23.4391      15.431985       0.01863
   7     846.6        8.0270        0.0471       23.3591       23.4063      15.379257       0.01872
   6     870.4        8.0472        0.0484       23.3252       23.3736      15.326436       0.01875
   5     894.1        8.0675        0.0496       23.2914       23.3411      15.273531       0.01878
   4     917.9        8.0883        0.0509       23.2576       23.3085      15.220187       0.01894
   3     941.7        8.1092        0.0521       23.2239       23.2761      15.166863       0.01892
   2     965.5        8.1303        0.0534       23.1905       23.2438      15.113522       0.01893
   1     989.2        8.1516        0.0546       23.1572       23.2118      15.060181       0.01893
   0    1013.0        8.1732        0.0559       23.1240       23.1799      15.006654       0.01900



 Wavenumbers:  8050. - 12850. cm-1, ATM      1
 LEVEL PRESSURE   UPWARD FLUX   DIFDOWN FLUX  DIRDOWN FLUX  DOWNWARD FLUX   NET FLUX    HEATING RATE
          mb          W/m2          W/m2          W/m2        W/m2          W/m2       degree/day
  59    0.1000      209.4978        0.0000      344.8128      344.8128     135.315045       0.00000
  58    0.1400      209.4978        0.0002      344.8127      344.8128     135.315045      -0.00000
  57    0.1970      209.4978        0.0004      344.8125      344.8128     135.315045       0.00000
  56    0.2760      209.4978        0.0007      344.8121      344.8128     135.315045      -0.00000
  55    0.3870      209.4978        0.0011      344.8117      344.8128     135.315045      -0.00000
  54    0.5430      209.4977        0.0017      344.8111      344.8128     135.315045       0.00000
  53    0.7620      209.4977        0.0025      344.8102      344.8128     135.315045       0.00000
  52     1.070      209.4977        0.0037      344.8090      344.8127     135.315045      -0.00000
  51     1.500      209.4976        0.0053      344.8073      344.8127     135.315045       0.00000
  50     2.100      209.4976        0.0076      344.8050      344.8126     135.315045       0.00000
  49     2.950      209.4975        0.0109      344.8016      344.8125     135.315045      -0.00000
  48     4.130      209.4973        0.0154      344.7970      344.8124     135.315045      -0.00000
  47     5.800      209.4971        0.0217      344.7905      344.8122     135.315045       0.00000
  46     8.130      209.4969        0.0306      344.7813      344.8119     135.315045       0.00000
  45     11.41      209.4965        0.0430      344.7685      344.8115     135.315045      -0.00000
  44     16.01      209.4959        0.0605      344.7505      344.8110     135.315045      -0.00000
  43     22.46      209.4952        0.0849      344.7253      344.8102     135.315045       0.00000
  42     31.51      209.4942        0.1192      344.6900      344.8092     135.315045       0.00000
  41     44.20      209.4927        0.1672      344.6405      344.8077     135.315045       0.00000
  40     62.00      209.4906        0.2345      344.5712      344.8057     135.315045      -0.00000
  39     85.77      209.4879        0.3243      344.4786      344.8029     135.315045       0.00000
  38     109.5      209.4862        0.4141      344.3750      344.7891     135.302865       0.00432
  37     133.3      209.4845        0.5035      344.2720      344.7755     135.290983       0.00422
  36     157.1      209.4828        0.5931      344.1688      344.7620     135.279211       0.00418
  35     180.9      209.4810        0.6827      344.0632      344.7460     135.264988       0.00505
  34     204.7      209.4795        0.7719      343.9523      344.7242     135.244689       0.00720
  33     228.4      209.4788        0.8614      343.8309      344.6922     135.213449       0.01109
  32     252.2      209.4793        0.9507      343.6939      344.6446     135.165285       0.01709
  31     276.0      209.4810        1.0399      343.5440      344.5840     135.102941       0.02213
  30     299.8      209.4840        1.1291      343.3839      344.5130     135.028989       0.02624
  29     323.5      209.4876        1.2177      343.2207      344.4384     134.950756       0.02778
  28     347.3      209.4934        1.3069      343.0397      344.3466     134.853202       0.03463
  27     371.1      209.5073        1.3954      342.7861      344.1815     134.674217       0.06352
  26     394.9      209.5357        1.4835      342.4185      343.9019     134.366230       0.10930
  25     418.6      209.5752        1.5719      341.9892      343.5610     133.985797       0.13507
  24     442.4      209.6248        1.6590      341.5256      343.1846     133.559823       0.15123
  23     466.2      209.6887        1.7470      341.0097      342.7567     133.067986       0.17455
  22     489.9      209.7708        1.8341      340.4380      342.2720     132.501203       0.20114
  21     513.7      209.8749        1.9199      339.8104      341.7304     131.855419       0.22928
  20     537.5      210.0092        2.0067      339.1057      341.1123     131.103086       0.26699
  19     561.3      210.1775        2.0923      338.3318      340.4241     130.246568       0.30409
  18     585.0      210.3858        2.1763      337.4848      339.6611     129.275308       0.34483
  17     608.8      210.6443        2.2606      336.5477      338.8083     128.164058       0.39436
  16     632.6      210.9465        2.3443      335.5598      337.9042     126.957674       0.42813
  15     656.4      211.2961        2.4271      334.5230      336.9501     125.654011       0.46284
  14     680.1      211.6983        2.5088      333.4376      335.9464     124.248022       0.49917
  13     703.9      212.1562        2.5907      332.3096      334.9003     122.744123       0.53371
  12     727.7      212.6580        2.6718      331.1780      333.8498     121.191771       0.55091
  11     751.5      213.2105        2.7524      330.0362      332.7886     119.578155       0.57289
  10     775.2      213.8158        2.8321      328.8885      331.7206     117.904765       0.59386
   9     799.0      214.4836        2.9122      327.7266      330.6388     116.155152       0.62117
   8     822.8      215.2046        2.9916      326.5746      329.5662     114.361651       0.63649
   7     846.6      215.9862        3.0707      325.4279      328.4986     112.512351       0.65656
   6     870.4      216.8329        3.1492      324.2873      327.4365     110.603587       0.67739
   5     894.1      217.7490        3.2271      323.1551      326.3822     108.633199       0.69955
   4     917.9      218.7161        3.3057      322.0562      325.3619     106.645782       0.70560
   3     941.7      219.7193        3.3844      321.0056      324.3899     104.670657       0.70094
   2     965.5      220.7566        3.4633      320.0022      323.4655     102.708877       0.69620
   1     989.2      221.8369        3.5424      319.0377      322.5801     100.743246       0.69757
   0    1013.0      222.9606        3.6219      318.1105      321.7324      98.771846       0.69991



 Wavenumbers: 12850. - 16000. cm-1, ATM      1
 LEVEL PRESSURE   UPWARD FLUX   DIFDOWN FLUX  DIRDOWN FLUX  DOWNWARD FLUX   NET FLUX    HEATING RATE
          mb          W/m2          W/m2          W/m2        W/m2          W/m2       degree/day
  59    0.1000      179.0683        0.0000      216.0557      216.0557      36.987449       0.00000
  58    0.1400      179.0686        0.0004      216.0525      216.0528      36.984217       0.68176
  57    0.1970      179.0692        0.0009      216.0478      216.0488      36.979532       0.69365
  56    0.2760      179.0703        0.0016      216.0414      216.0431      36.972771       0.72229
  55    0.3870      179.0722        0.0027      216.0324      216.0351      36.962849       0.75432
  54    0.5430      179.0757        0.0041      216.0197      216.0238      36.948149       0.79523
  53    0.7620      179.0817        0.0062      216.0018      216.0080      36.926310       0.84158
  52     1.070      179.0918        0.0090      215.9777      215.9867      36.894880       0.86118
  51     1.500      179.1105        0.0130      215.9432      215.9562      36.845657       0.96604
  50     2.100      179.1418        0.0186      215.8962      215.9148      36.773021       1.02164
  49     2.950      179.1907        0.0265      215.8336      215.8600      36.669377       1.02902
  48     4.130      179.2619        0.0374      215.7533      215.7907      36.528862       1.00494
  47     5.800      179.3605        0.0528      215.6523      215.7051      36.344553       0.93139
  46     8.130      179.4933        0.0744      215.5245      215.5989      36.105631       0.86536
  45     11.41      179.6673        0.1047      215.3607      215.4653      35.798029       0.79143
  44     16.01      179.8933        0.1471      215.1463      215.2933      35.400026       0.73018
  43     22.46      180.1959        0.2064      214.8559      215.0623      34.866426       0.69816
  42     31.51      180.6050        0.2893      214.4581      214.7475      34.142461       0.67510
  41     44.20      181.1304        0.4054      213.9314      214.3369      33.206505       0.62243
  40     62.00      181.7476        0.5678      213.2742      213.8420      32.094356       0.52728
  39     85.77      182.2940        0.7847      212.5864      213.3712      31.077197       0.36113
  38     109.5      182.7174        1.0040      212.0205      213.0245      30.307154       0.27339
  37     133.3      183.0291        1.2224      211.5369      212.7593      29.730147       0.20477
  36     157.1      183.2630        1.4415      211.1108      212.5522      29.289184       0.15649
  35     180.9      183.4350        1.6605      210.7294      212.3899      28.954840       0.11870
  34     204.7      183.5841        1.8785      210.3678      212.2463      28.662164       0.10387
  33     228.4      183.7264        2.0968      210.0124      212.1092      28.382825       0.09917
  32     252.2      183.8619        2.3147      209.6617      211.9764      28.114544       0.09521
  31     276.0      183.9863        2.5325      209.3170      211.8495      27.863241       0.08922
  30     299.8      184.0995        2.7498      208.9777      211.7275      27.627964       0.08350
  29     323.5      184.1999        2.9658      208.6465      211.6123      27.412452       0.07651
  28     347.3      184.2948        3.1834      208.3156      211.4989      27.204176       0.07394
  27     371.1      184.3892        3.3993      207.9854      211.3847      26.995533       0.07404
  26     394.9      184.4856        3.6149      207.6535      211.2684      26.782724       0.07552
  25     418.6      184.5844        3.8316      207.3184      211.1500      26.565619       0.07708
  24     442.4      184.6841        4.0455      206.9867      211.0322      26.348059       0.07724
  23     466.2      184.7888        4.2617      206.6498      210.9115      26.122755       0.07996
  22     489.9      184.8985        4.4761      206.3132      210.7893      25.890799       0.08232
  21     513.7      185.0141        4.6883      205.9768      210.6651      25.650994       0.08514
  20     537.5      185.1395        4.9035      205.6323      210.5357      25.396244       0.09041
  19     561.3      185.2730        5.1168      205.2867      210.4034      25.130407       0.09438
  18     585.0      185.4154        5.3275      204.9407      210.2682      24.852821       0.09855
  17     608.8      185.5708        5.5401      204.5864      210.1265      24.555731       0.10543
  16     632.6      185.7370        5.7524      204.2288      209.9812      24.244180       0.11056
  15     656.4      185.9140        5.9634      203.8693      209.8327      23.918647       0.11557
  14     680.1      186.1023        6.1726      203.5085      209.6811      23.578767       0.12067
  13     703.9      186.3042        6.3834      203.1418      209.5252      23.220952       0.12698
  12     727.7      186.5160        6.5928      202.7756      209.3683      22.852283       0.13083
  11     751.5      186.7393        6.8015      202.4081      209.2096      22.470340       0.13560
  10     775.2      186.9738        7.0089      202.0408      209.0496      22.075867       0.13999
   9     799.0      187.2226        7.2175      201.6693      208.8868      21.664163       0.14617
   8     822.8      187.4825        7.4250      201.2988      208.7238      21.241301       0.15007
   7     846.6      187.7548        7.6318      200.9283      208.5601      20.805290       0.15480
   6     870.4      188.0396        7.8378      200.5584      208.3962      20.356543       0.15925
   5     894.1      188.3375        8.0426      200.1894      208.2320      19.894510       0.16404
   4     917.9      188.6480        8.2486      199.8200      208.0686      19.420651       0.16824
   3     941.7      188.9684        8.4544      199.4537      207.9081      18.939744       0.17067
   2     965.5      189.2992        8.6602      199.0904      207.7506      18.451456       0.17329
   1     989.2      189.6416        8.8658      198.7300      207.5958      17.954188       0.17647
   0    1013.0      189.9975        9.0720      198.3715      207.4435      17.445998       0.18042



 Wavenumbers: 16000. - 22650. cm-1, ATM      1
 LEVEL PRESSURE   UPWARD FLUX   DIFDOWN FLUX  DIRDOWN FLUX  DOWNWARD FLUX   NET FLUX    HEATING RATE
          mb          W/m2          W/m2          W/m2        W/m2          W/m2       degree/day
  59    0.1000      309.0201        0.0000      344.4769      344.4769      35.456781       0.00000
  58    0.1400      309.0215        0.0021      344.4746      344.4767      35.455194       0.33474
  57    0.1970      309.0237        0.0051      344.4710      344.4761      35.452410       0.41223
  56    0.2760      309.0275        0.0092      344.4657      344.4749      35.447367       0.53872
  55    0.3870      309.0343        0.0150      344.4574      344.4724      35.438168       0.69943
  54    0.5430      309.0461        0.0232      344.4444      344.4676      35.421503       0.90150
  53    0.7620      309.0664        0.0348      344.4239      344.4587      35.392231       1.12798
  52     1.070      309.1004        0.0506      344.3923      344.4429      35.342506       1.36246
  51     1.500      309.1626        0.0731      344.3394      344.4125      35.249884       1.81780
  50     2.100      309.2657        0.1044      344.2562      344.3607      35.094954       2.17912
  49     2.950      309.4265        0.1484      344.1303      344.2787      34.852185       2.41031
  48     4.130      309.6603        0.2101      343.9491      344.1592      34.498895       2.52666
  47     5.800      309.9842        0.2964      343.6979      343.9943      34.010112       2.47001
  46     8.130      310.4200        0.4174      343.3568      343.7743      33.354217       2.37562
  45     11.41      310.9922        0.5872      342.9023      343.4895      32.497316       2.20473
  44     16.01      311.7367        0.8248      342.3005      343.1253      31.388532       2.03417
  43     22.46      312.7354        1.1572      341.4868      342.6440      29.908646       1.93628
  42     31.51      314.0895        1.6215      340.3806      342.0020      27.912507       1.86140
  41     44.20      315.8392        2.2708      338.9262      341.1970      25.357769       1.69896
  40     62.00      317.9139        3.1783      337.1171      340.2953      22.381465       1.41109
  39     85.77      319.7879        4.3895      335.2103      339.5998      19.811897       0.91228
  38     109.5      321.0889        5.6013      333.6239      339.2252      18.136312       0.59489
  37     133.3      322.0677        6.8062      332.2206      339.0268      16.959108       0.41777
  36     157.1      322.8198        8.0137      330.9396      338.9532      16.133399       0.29303
  35     180.9      323.3893        9.2192      329.7588      338.9780      15.588737       0.19337
  34     204.7      323.8861       10.4169      328.6236      339.0405      15.154339       0.15416
  33     228.4      324.3567       11.6147      327.5030      339.1177      14.761015       0.13964
  32     252.2      324.7996       12.8077      326.4013      339.2090      14.409377       0.12479
  31     276.0      325.2027       13.9982      325.3232      339.3214      14.118742       0.10319
  30     299.8      325.5651       15.1845      324.2702      339.4547      13.889540       0.08134
  29     323.5      325.8820       16.3622      323.2478      339.6101      13.728095       0.05732
  28     347.3      326.1739       17.5462      322.2344      339.7806      13.606748       0.04308
  27     371.1      326.4518       18.7197      321.2361      339.9558      13.503995       0.03647
  26     394.9      326.7202       19.8893      320.2456      340.1350      13.414799       0.03165
  25     418.6      326.9806       21.0635      319.2563      340.3197      13.339131       0.02686
  24     442.4      327.2297       22.2203      318.2854      340.5057      13.275953       0.02243
  23     466.2      327.4767       23.3878      317.3079      340.6957      13.219005       0.02021
  22     489.9      327.7203       24.5443      316.3402      340.8845      13.164169       0.01946
  21     513.7      327.9603       25.6869      315.3844      341.0713      13.111042       0.01886
  20     537.5      328.2029       26.8441      314.4167      341.2607      13.057842       0.01888
  19     561.3      328.4430       27.9898      313.4584      341.4483      13.005305       0.01865
  18     585.0      328.6801       29.1207      312.5126      341.6333      12.953155       0.01851
  17     608.8      328.9195       30.2606      311.5589      341.8195      12.900046       0.01885
  16     632.6      329.1583       31.3974      310.6078      342.0051      12.846849       0.01888
  15     656.4      329.3958       32.5265      309.6629      342.1894      12.793575       0.01891
  14     680.1      329.6315       33.6451      308.7265      342.3716      12.740112       0.01898
  13     703.9      329.8690       34.7712      307.7837      342.5549      12.685930       0.01923
  12     727.7      330.1046       35.8885      306.8483      342.7368      12.632173       0.01908
  11     751.5      330.3394       37.0013      305.9166      342.9179      12.578522       0.01905
  10     775.2      330.5724       38.1054      304.9921      343.0975      12.525061       0.01897
   9     799.0      330.8069       39.2153      304.0626      343.2779      12.471044       0.01918
   8     822.8      331.0398       40.3174      303.1396      343.4570      12.417159       0.01912
   7     846.6      331.2720       41.4150      302.2202      343.6352      12.363215       0.01915
   6     870.4      331.5031       42.5064      301.3060      343.8124      12.309258       0.01915
   5     894.1      331.7328       43.5903      300.3979      343.9882      12.255409       0.01912
   4     917.9      331.9629       44.6787      299.4864      344.1650      12.202154       0.01891
   3     941.7      332.1915       45.7634      298.5783      344.3417      12.150166       0.01845
   2     965.5      332.4188       46.8456      297.6727      344.5183      12.099487       0.01799
   1     989.2      332.6447       47.9239      296.7707      344.6946      12.049969       0.01757
   0    1013.0      332.8699       49.0028      295.8686      344.8714      12.001526       0.01720



 Wavenumbers: 22650. - 29000. cm-1, ATM      1
 LEVEL PRESSURE   UPWARD FLUX   DIFDOWN FLUX  DIRDOWN FLUX  DOWNWARD FLUX   NET FLUX    HEATING RATE
          mb          W/m2          W/m2          W/m2        W/m2          W/m2       degree/day
  59    0.1000      126.1394        0.0000      129.9930      129.9930       3.853673       0.00000
  58    0.1400      126.1398        0.0025      129.9910      129.9935       3.853673       0.00000
  57    0.1970      126.1405        0.0060      129.9882      129.9942       3.853673      -0.00000
  56    0.2760      126.1414        0.0109      129.9842      129.9951       3.853673       0.00000
  55    0.3870      126.1427        0.0177      129.9786      129.9963       3.853673      -0.00000
  54    0.5430      126.1444        0.0273      129.9708      129.9981       3.853673       0.00000
  53    0.7620      126.1470        0.0409      129.9597      130.0006       3.853673      -0.00000
  52     1.070      126.1504        0.0595      129.9446      130.0041       3.853673       0.00000
  51     1.500      126.1553        0.0859      129.9230      130.0090       3.853673       0.00000
  50     2.100      126.1621        0.1228      129.8930      130.0158       3.853673      -0.00000
  49     2.950      126.1717        0.1745      129.8509      130.0254       3.853673      -0.00000
  48     4.130      126.1852        0.2470      129.7918      130.0389       3.853673       0.00000
  47     5.800      126.2040        0.3486      129.7091      130.0577       3.853673       0.00000
  46     8.130      126.2304        0.4909      129.5931      130.0841       3.853673      -0.00000
  45     11.41      126.2674        0.6905      129.4305      130.1211       3.853673      -0.00000
  44     16.01      126.3192        0.9698      129.2030      130.1728       3.853673       0.00000
  43     22.46      126.3915        1.3603      128.8849      130.2452       3.853673      -0.00000
  42     31.51      126.4925        1.9053      128.4409      130.3462       3.853673       0.00000
  41     44.20      126.6335        2.6663      127.8208      130.4871       3.853673      -0.00000
  40     62.00      126.8296        3.7257      126.9576      130.6833       3.853673       0.00000
  39     85.77      127.0888        5.1272      125.8153      130.9425       3.853673      -0.00000
  38     109.5      127.3456        6.5164      124.6829      131.1993       3.853673       0.00000
  37     133.3      127.5985        7.8855      123.5667      131.4521       3.853673       0.00000
  36     157.1      127.8494        9.2456      122.4576      131.7031       3.853673       0.00000
  35     180.9      128.0976       10.5916      121.3597      131.9513       3.853673      -0.00000
  34     204.7      128.3421       11.9190      120.2768      132.1958       3.853673       0.00000
  33     228.4      128.5849       13.2377      119.2008      132.4385       3.853673       0.00000
  32     252.2      128.8248       14.5424      118.1361      132.6785       3.853673      -0.00000
  31     276.0      129.0623       15.8349      117.0811      132.9159       3.853673       0.00000
  30     299.8      129.2970       17.1133      116.0373      133.1506       3.853673       0.00000
  29     323.5      129.5280       18.3729      115.0088      133.3816       3.853673       0.00000
  28     347.3      129.7583       19.6299      113.9821      133.6120       3.853673      -0.00000
  27     371.1      129.9849       20.8675      112.9711      133.8386       3.853673       0.00000
  26     394.9      130.2090       22.0927      111.9699      134.0627       3.853673       0.00000
  25     418.6      130.4323       23.3144      110.9716      134.2859       3.853673      -0.00000
  24     442.4      130.6505       24.5100      109.9943      134.5042       3.853673       0.00000
  23     466.2      130.8692       25.7087      109.0142      134.7229       3.853673       0.00000
  22     489.9      131.0842       26.8885      108.0494      134.9378       3.853673       0.00000
  21     513.7      131.2950       28.0466      107.1021      135.1487       3.853673       0.00000
  20     537.5      131.5069       29.2120      106.1486      135.3606       3.853673       0.00000
  19     561.3      131.7153       30.3585      105.2104      135.5689       3.853673       0.00000
  18     585.0      131.9194       31.4830      104.2901      135.7730       3.853673       0.00000
  17     608.8      132.1236       32.6092      103.3680      135.9772       3.853673       0.00000
  16     632.6      132.3257       33.7252      102.4542      136.1794       3.853673       0.00000
  15     656.4      132.5250       34.8267      101.5520      136.3787       3.853673      -0.00000
  14     680.1      132.7210       35.9110      100.6637      136.5747       3.853673       0.00000
  13     703.9      132.9169       36.9957       99.7749      136.7706       3.853673      -0.00000
  12     727.7      133.1098       38.0650       98.8984      136.9635       3.853673       0.00000
  11     751.5      133.3005       39.1233       98.0308      137.1542       3.853673       0.00000
  10     775.2      133.4883       40.1668       97.1752      137.3420       3.853673       0.00000
   9     799.0      133.6757       41.2090       96.3204      137.5294       3.853673       0.00000
   8     822.8      133.8604       42.2374       95.4767      137.7141       3.853673       0.00000
   7     846.6      134.0430       43.2552       94.6414      137.8967       3.853673       0.00000
   6     870.4      134.2232       44.2608       93.8161      138.0769       3.853673       0.00000
   5     894.1      134.4008       45.2532       93.0013      138.2545       3.853673       0.00000
   4     917.9      134.5779       46.2435       92.1880      138.4315       3.853673       0.00000
   3     941.7      134.7530       47.2241       91.3826      138.6067       3.853673      -0.00000
   2     965.5      134.9264       48.1962       90.5838      138.7800       3.853673       0.00000
   1     989.2      135.0978       49.1587       89.7928      138.9515       3.853673       0.00000
   0    1013.0      135.2681       50.1155       89.0063      139.1218       3.853673      -0.00000



 Wavenumbers: 29000. - 38000. cm-1, ATM      1
 LEVEL PRESSURE   UPWARD FLUX   DIFDOWN FLUX  DIRDOWN FLUX  DOWNWARD FLUX   NET FLUX    HEATING RATE
          mb          W/m2          W/m2          W/m2        W/m2          W/m2       degree/day
  59    0.1000       19.6942        0.0000       45.8410       45.8410      26.146805       0.00000
  58    0.1400       19.6940        0.0014       45.8124       45.8138      26.119805       5.69660
  57    0.1970       19.6938        0.0034       45.7630       45.7665      26.072640       6.98295
  56    0.2760       19.6939        0.0062       45.6756       45.6818      25.987905       9.05183
  55    0.3870       19.6944        0.0101       45.5202       45.5303      25.835838      11.56137
  54    0.5430       19.6959        0.0154       45.2494       45.2648      25.568918      14.43961
  53    0.7620       19.6990        0.0228       44.8019       44.8246      25.125594      17.08344
  52     1.070       19.7050        0.0323       44.1127       44.1450      24.439948      18.78659
  51     1.500       19.7173        0.0451       43.0236       43.0686      23.351295      21.36580
  50     2.100       19.7389        0.0618       41.6137       41.6755      21.936630      19.89762
  49     2.950       19.7733        0.0844       40.0524       40.1368      20.363535      15.61833
  48     4.130       19.8238        0.1152       38.5211       38.6363      18.812501      11.09272
  47     5.800       19.8943        0.1573       37.0685       37.2257      17.331439       7.48437
  46     8.130       19.9902        0.2147       35.6638       35.8785      15.888287       5.22703
  45     11.41       20.1180        0.2931       34.2912       34.5842      14.466194       3.65892
  44     16.01       20.2882        0.3999       32.9306       33.3304      13.042270       2.61233
  43     22.46       20.5251        0.5444       31.5205       32.0649      11.539875       1.96573
  42     31.51       20.8668        0.7395       30.0332       30.7726       9.905876       1.52371
  41     44.20       21.3474        1.0046       28.5104       29.5151       8.167626       1.15598
  40     62.00       21.9822        1.3689       27.0176       28.3865       6.404307       0.83601
  39     85.77       22.6187        1.8599       25.7484       27.6083       4.989610       0.50226
  38     109.5       23.0990        2.3536       24.8316       27.1851       4.086095       0.32078
  37     133.3       23.4808        2.8433       24.0874       26.9306       3.449881       0.22578
  36     157.1       23.7831        3.3335       23.4494       26.7829       2.999783       0.15973
  35     180.9       24.0129        3.8228       22.8897       26.7125       2.699600       0.10657
  34     204.7       24.2144        4.3032       22.3688       26.6719       2.457495       0.08592
  33     228.4       24.4077        4.7759       21.8677       26.6436       2.235898       0.07867
  32     252.2       24.5912        5.2398       21.3871       26.6270       2.035747       0.07103
  31     276.0       24.7576        5.6978       20.9284       26.6262       1.868621       0.05934
  30     299.8       24.9053        6.1499       20.4908       26.6407       1.735379       0.04729
  29     323.5       25.0307        6.5957       20.0755       26.6711       1.640429       0.03371
  28     347.3       25.1429        7.0392       19.6721       26.7113       1.568376       0.02558
  27     371.1       25.2477        7.4726       19.2821       26.7547       1.506975       0.02179
  26     394.9       25.3469        7.8984       18.9022       26.8006       1.453689       0.01891
  25     418.6       25.4409        8.3199       18.5295       26.8494       1.408576       0.01602
  24     442.4       25.5285        8.7293       18.1703       26.8996       1.371122       0.01330
  23     466.2       25.6134        9.1363       17.8148       26.9511       1.337705       0.01186
  22     489.9       25.6958        9.5328       17.4689       27.0017       1.305903       0.01129
  21     513.7       25.7757        9.9182       17.1331       27.0513       1.275623       0.01075
  20     537.5       25.8550       10.3022       16.7988       27.1010       1.246002       0.01051
  19     561.3       25.9320       10.6761       16.4735       27.1496       1.217618       0.01008
  18     585.0       26.0067       11.0392       16.1580       27.1971       1.190464       0.00964
  17     608.8       26.0805       11.3993       15.8452       27.2445       1.163936       0.00941
  16     632.6       26.1529       11.7525       15.5386       27.2912       1.138312       0.00909
  15     656.4       26.2234       12.0977       15.2393       27.3370       1.113634       0.00876
  14     680.1       26.2920       12.4342       14.9476       27.3819       1.089896       0.00843
  13     703.9       26.3598       12.7676       14.6589       27.4265       1.066715       0.00823
  12     727.7       26.4258       13.0930       14.3773       27.4703       1.044414       0.00791
  11     751.5       26.4905       13.4118       14.1015       27.5133       1.022865       0.00765
  10     775.2       26.5534       13.7232       13.8323       27.5555       1.002084       0.00737
   9     799.0       26.6157       14.0311       13.5662       27.5973       0.981668       0.00725
   8     822.8       26.6765       14.3319       13.3063       27.6382       0.961714       0.00708
   7     846.6       26.7362       14.6266       13.0517       27.6784       0.942143       0.00695
   6     870.4       26.7947       14.9149       12.8027       27.7176       0.922965       0.00681
   5     894.1       26.8519       15.1966       12.5594       27.7561       0.904212       0.00666
   4     917.9       26.9084       15.4750       12.3191       27.7941       0.885737       0.00656
   3     941.7       26.9638       15.7479       12.0835       27.8315       0.867690       0.00640
   2     965.5       27.0182       16.0159       11.8523       27.8682       0.850038       0.00626
   1     989.2       27.0715       16.2785       11.6258       27.9043       0.832786       0.00612
   0    1013.0       27.1241       16.5371       11.4028       27.9399       0.815846       0.00601



 Wavenumbers: 38000. - 50000. cm-1, ATM      1
 LEVEL PRESSURE   UPWARD FLUX   DIFDOWN FLUX  DIRDOWN FLUX  DOWNWARD FLUX   NET FLUX    HEATING RATE
          mb          W/m2          W/m2          W/m2        W/m2          W/m2       degree/day
  59    0.1000        0.0071        0.0000        2.8274        2.8274       2.820310       0.00000
  58    0.1400        0.0069        0.0002        2.8117        2.8119       2.804962       3.23819
  57    0.1970        0.0067        0.0006        2.7847        2.7853       2.778617       3.90054
  56    0.2760        0.0064        0.0010        2.7376        2.7386       2.732280       4.94994
  55    0.3870        0.0059        0.0016        2.6554        2.6570       2.651051       6.17569
  54    0.5430        0.0054        0.0023        2.5157        2.5180       2.512567       7.49155
  53    0.7620        0.0048        0.0030        2.2939        2.2969       2.292063       8.49713
  52     1.070        0.0041        0.0035        1.9750        1.9785       1.974353       8.70518
  51     1.500        0.0034        0.0035        1.5280        1.5315       1.528056       8.75899
  50     2.100        0.0028        0.0032        1.0563        1.0595       1.056640       6.63058
  49     2.950        0.0023        0.0027        0.6751        0.6778       0.675550       3.78362
  48     4.130        0.0018        0.0024        0.4270        0.4294       0.427568       1.77352
  47     5.800        0.0015        0.0021        0.2730        0.2751       0.273612       0.77800
  46     8.130        0.0011        0.0018        0.1726        0.1744       0.173232       0.36357
  45     11.41        0.0008        0.0015        0.1066        0.1081       0.107323       0.16958
  44     16.01        0.0005        0.0011        0.0634        0.0646       0.064035       0.07942
  43     22.46        0.0003        0.0008        0.0344        0.0351       0.034809       0.03824
  42     31.51        0.0002        0.0004        0.0158        0.0162       0.016037       0.01751
  41     44.20        0.0001        0.0002        0.0059        0.0060       0.005957       0.00670
  40     62.00        0.0000        0.0001        0.0017        0.0018       0.001752       0.00199
  39     85.77        0.0000        0.0000        0.0004        0.0005       0.000459       0.00046
  38     109.5        0.0000        0.0000        0.0001        0.0001       0.000140       0.00011
  37     133.3        0.0000        0.0000        0.0000        0.0000       0.000046       0.00003
  36     157.1        0.0000        0.0000        0.0000        0.0000       0.000016       0.00001
  35     180.9        0.0000        0.0000        0.0000        0.0000       0.000006       0.00000
  34     204.7        0.0000        0.0000        0.0000        0.0000       0.000002       0.00000
  33     228.4        0.0000        0.0000        0.0000        0.0000       0.000001       0.00000
  32     252.2        0.0000        0.0000        0.0000        0.0000       0.000000       0.00000
  31     276.0        0.0000        0.0000        0.0000        0.0000       0.000000       0.00000
  30     299.8        0.0000        0.0000        0.0000        0.0000       0.000000       0.00000
  29     323.5        0.0000        0.0000        0.0000        0.0000       0.000000       0.00000
  28     347.3        0.0000        0.0000        0.0000        0.0000       0.000000       0.00000
  27     371.1        0.0000        0.0000        0.0000        0.0000       0.000000       0.00000
  26     394.9        0.0000        0.0000        0.0000        0.0000       0.000000       0.00000
  25     418.6        0.0000        0.0000        0.0000        0.0000       0.000000       0.00000
  24     442.4        0.0000        0.0000        0.0000        0.0000       0.000000       0.00000
  23     466.2        0.0000        0.0000        0.0000        0.0000       0.000000       0.00000
  22     489.9        0.0000        0.0000        0.0000        0.0000       0.000000       0.00000
  21     513.7        0.0000        0.0000        0.0000        0.0000       0.000000       0.00000
  20     537.5        0.0000        0.0000        0.0000        0.0000       0.000000       0.00000
  19     561.3        0.0000        0.0000        0.0000        0.0000       0.000000       0.00000
  18     585.0        0.0000        0.0000        0.0000        0.0000       0.000000       0.00000
  17     608.8        0.0000        0.0000        0.0000        0.0000       0.000000       0.00000
  16     632.6        0.0000        0.0000        0.0000        0.0000       0.000000       0.00000
  15     656.4        0.0000        0.0000        0.0000        0.0000       0.000000       0.00000
  14     680.1        0.0000        0.0000        0.0000        0.0000       0.000000       0.00000
  13     703.9        0.0000        0.0000        0.0000        0.0000       0.000000       0.00000
  12     727.7        0.0000        0.0000        0.0000        0.0000       0.000000       0.00000
  11     751.5        0.0000        0.0000        0.0000        0.0000       0.000000       0.00000
  10     775.2        0.0000        0.0000        0.0000        0.0000       0.000000       0.00000
   9     799.0        0.0000        0.0000        0.0000        0.0000       0.000000       0.00000
   8     822.8        0.0000        0.0000        0.0000        0.0000       0.000000       0.00000
   7     846.6        0.0000        0.0000        0.0000        0.0000       0.000000       0.00000
   6     870.4        0.0000        0.0000        0.0000        0.0000       0.000000       0.00000
   5     894.1        0.0000        0.0000        0.0000        0.0000       0.000000       0.00000
   4     917.9        0.0000        0.0000        0.0000        0.0000       0.000000       0.00000
   3     941.7        0.0000        0.0000        0.0000        0.0000       0.000000       0.00000
   2     965.5        0.0000        0.0000        0.0000        0.0000       0.000000       0.00000
   1     989.2        0.0000        0.0000        0.0000        0.0000       0.000000       0.00000
   0    1013.0        0.0000        0.0000        0.0000        0.0000       0.000000       0.00000



 Wavenumbers:   820. -  2600. cm-1, ATM      1
 LEVEL PRESSURE   UPWARD FLUX   DIFDOWN FLUX  DIRDOWN FLUX  DOWNWARD FLUX   NET FLUX    HEATING RATE
          mb          W/m2          W/m2          W/m2        W/m2          W/m2       degree/day
  59    0.1000        0.3594        0.0000       13.2264       13.2264      12.866931       0.00000
  58    0.1400        0.3594        0.0000       13.2159       13.2159      12.856478       2.20527
  57    0.1970        0.3594        0.0000       13.2115       13.2115      12.852073       0.65220
  56    0.2760        0.3594        0.0000       13.2061       13.2061      12.846634       0.58106
  55    0.3870        0.3594        0.0000       13.1997       13.1997      12.840208       0.48855
  54    0.5430        0.3594        0.0000       13.1923       13.1923      12.832857       0.39767
  53    0.7620        0.3595        0.0000       13.1835       13.1835      12.824055       0.33918
  52     1.070        0.3595        0.0000       13.1725       13.1725      12.813064       0.30115
  51     1.500        0.3595        0.0000       13.1571       13.1571      12.797641       0.30269
  50     2.100        0.3595        0.0000       13.1354       13.1354      12.775966       0.30487
  49     2.950        0.3595        0.0000       13.1048       13.1048      12.745313       0.30434
  48     4.130        0.3595        0.0000       13.0622       13.0622      12.702757       0.30435
  47     5.800        0.3595        0.0000       13.0045       13.0045      12.645053       0.29160
  46     8.130        0.3595        0.0000       12.9281       12.9281      12.568616       0.27685
  45     11.41        0.3595        0.0000       12.8285       12.8285      12.468967       0.25639
  44     16.01        0.3595        0.0000       12.7006       12.7006      12.341071       0.23464
  43     22.46        0.3596        0.0000       12.5504       12.5504      12.190886       0.19650
  42     31.51        0.3596        0.0000       12.4060       12.4060      12.046428       0.13471
  41     44.20        0.3597        0.0000       12.2951       12.2951      11.935419       0.07382
  40     62.00        0.3598        0.0000       12.2025       12.2025      11.842767       0.04393
  39     85.77        0.3599        0.0000       12.0933       12.0933      11.733417       0.03882
  38     109.5        0.3600        0.0000       11.9868       11.9868      11.626753       0.03787
  37     133.3        0.3602        0.0000       11.8812       11.8812      11.521040       0.03752
  36     157.1        0.3603        0.0000       11.7804       11.7804      11.420083       0.03583
  35     180.9        0.3605        0.0000       11.6791       11.6791      11.318652       0.03601
  34     204.7        0.3606        0.0000       11.5767       11.5767      11.216079       0.03640
  33     228.4        0.3608        0.0000       11.4716       11.4716      11.110822       0.03737
  32     252.2        0.3609        0.0000       11.3537       11.3537      10.992790       0.04189
  31     276.0        0.3611        0.0000       11.2343       11.2343      10.873226       0.04245
  30     299.8        0.3612        0.0000       11.1123       11.1123      10.751075       0.04335
  29     323.5        0.3614        0.0000       10.9975       10.9975      10.636165       0.04080
  28     347.3        0.3615        0.0000       10.8740       10.8741      10.512533       0.04389
  27     371.1        0.3618        0.0000       10.6929       10.6930      10.331159       0.06437
  26     394.9        0.3623        0.0000       10.4471       10.4471      10.084878       0.08740
  25     418.6        0.3628        0.0000       10.2084       10.2084       9.845579       0.08496
  24     442.4        0.3634        0.0000        9.9957        9.9957       9.632284       0.07573
  23     466.2        0.3642        0.0000        9.7932        9.7932       9.429033       0.07213
  22     489.9        0.3651        0.0000        9.5905        9.5905       9.225475       0.07224
  21     513.7        0.3661        0.0000        9.3781        9.3782       9.012086       0.07576
  20     537.5        0.3673        0.0000        9.1447        9.1447       8.777382       0.08329
  19     561.3        0.3688        0.0000        8.8937        8.8938       8.525010       0.08960
  18     585.0        0.3704        0.0000        8.6313        8.6314       8.260976       0.09374
  17     608.8        0.3724        0.0000        8.3632        8.3632       7.990876       0.09585
  16     632.6        0.3745        0.0000        8.1120        8.1121       7.737556       0.08990
  15     656.4        0.3769        0.0001        7.8845        7.8845       7.507621       0.08163
  14     680.1        0.3795        0.0001        7.6843        7.6843       7.304796       0.07201
  13     703.9        0.3824        0.0001        7.5130        7.5131       7.130728       0.06177
  12     727.7        0.3854        0.0001        7.3727        7.3728       6.987429       0.05085
  11     751.5        0.3886        0.0001        7.2568        7.2568       6.868272       0.04230
  10     775.2        0.3920        0.0001        7.1605        7.1605       6.768564       0.03538
   9     799.0        0.3956        0.0001        7.0787        7.0787       6.683172       0.03032
   8     822.8        0.3993        0.0001        7.0091        7.0092       6.609845       0.02602
   7     846.6        0.4032        0.0001        6.9481        6.9481       6.544913       0.02305
   6     870.4        0.4073        0.0001        6.8932        6.8933       6.485991       0.02091
   5     894.1        0.4115        0.0001        6.8425        6.8426       6.431069       0.01950
   4     917.9        0.4160        0.0001        6.7947        6.7948       6.378803       0.01856
   3     941.7        0.4206        0.0001        6.7491        6.7492       6.328579       0.01782
   2     965.5        0.4254        0.0001        6.7054        6.7054       6.280019       0.01723
   1     989.2        0.4304        0.0001        6.6629        6.6629       6.232496       0.01687
   0    1013.0        0.4357        0.0001        6.6215        6.6216       6.185879       0.01655

  Modules and versions used in this calculation:

       rrtmg_sw.1col.f90:  $Revision$                    rrtmg_sw_init.f90:  $Revision$        
     rrtmgsw_cldprop.f90:  $Revision$                  rrtmgsw_cldprmc.f90:  NOT USED          
     rrtmg_sw_reftra.f90:  $Revision$                  rrtmg_sw_spcvrt.f90:  NOT USED          
     rrtmg_sw_spcvmc.f90:  NOT USED                    rrtmgsw_setcoef.f90:  NOT USED          
     rrtmg_sw_taumol.f90:  $Revision$                  rrtmg_sw_vrtqdr.f90:  NOT USED          
                rrtatm.f:  NOT USED                             util_xxx.f:  NOT USED          
                 extra.f:  NOT USED                       rrtmg_sw_k_g.f90:  $Revision$        

