

 Wavenumbers:   820. - 50000. cm-1, ATM      1
 LEVEL PRESSURE   UPWARD FLUX   DIFDOWN FLUX  DIRDOWN FLUX  DOWNWARD FLUX   NET FLUX    HEATING RATE
          mb          W/m2          W/m2          W/m2        W/m2          W/m2       degree/day
  59    0.1000       31.1291        0.0000     1360.8491     1360.8491    1329.720078       0.00000
  58    0.1400       31.1273        0.0047     1360.7700     1360.7747    1329.647369      15.34003
  57    0.1970       31.1250        0.0113     1360.6656     1360.6768    1329.551799      14.14967
  56    0.2760       31.1224        0.0204     1360.4973     1360.5177    1329.395319      16.71593
  55    0.3870       31.1195        0.0331     1360.2162     1360.2492    1329.129688      20.19546
  54    0.5430       31.1172        0.0506     1359.7485     1359.7991    1328.681957      24.22095
  53    0.7620       31.1161        0.0751     1359.0015     1359.0766    1327.960538      27.79983
  52     1.070       31.1184        0.1076     1357.8888     1357.9964    1326.877967      29.66225
  51     1.500       31.1301        0.1523     1356.1988     1356.3511    1325.220982      32.51985
  50     2.100       31.1564        0.2132     1354.0972     1354.3104    1323.154055      29.07184
  49     2.950       31.2028        0.2979     1351.8433     1352.1412    1320.938396      21.99796
  48     4.130       31.2731        0.4158     1349.6358     1350.0515    1318.778428      15.44770
  47     5.800       31.3703        0.5799     1347.4520     1348.0318    1316.661571      10.69728
  46     8.130       31.4979        0.8086     1345.1751     1345.9836    1314.485749       7.88072
  45     11.41       31.6577        1.1270     1342.7079     1343.8349    1312.177249       5.93956
  44     16.01       31.8543        1.5696     1339.9281     1341.4977    1309.643339       4.64870
  43     22.46       32.1138        2.1830     1336.6282     1338.8112    1306.697472       3.85436
  42     31.51       32.4718        3.0318     1332.6189     1335.6506    1303.178846       3.28113
  41     44.20       32.9254        4.2080     1327.8040     1332.0120    1299.086602       2.72144
  40     62.00       33.3980        5.8386     1322.1310     1327.9696    1294.571614       2.14060
  39     85.77       33.5257        8.0044     1316.0883     1324.0927    1290.567026       1.42176
  38     109.5       33.3143       10.1580     1310.8699     1321.0279    1287.713540       1.01308
  37     133.3       32.8936       12.2828     1306.1391     1318.4219    1285.528301       0.77551
  36     157.1       32.3056       14.3968     1301.7285     1316.1253    1283.819630       0.60638
  35     180.9       31.5752       16.4926     1297.5383     1314.0309    1282.455733       0.48423
  34     204.7       30.7858       18.5557     1293.4065     1311.9622    1281.176357       0.45403
  33     228.4       29.9646       20.5986     1289.2005     1309.7991    1279.834509       0.47640
  32     252.2       29.1136       22.6139     1284.8824     1307.4963    1278.382700       0.51522
  31     276.0       28.2205       24.6071     1280.5653     1305.1723    1276.951795       0.50802
  30     299.8       27.2863       26.5760     1276.2839     1302.8600    1275.573645       0.48908
  29     323.5       26.3114       28.5150     1272.1283     1300.6433    1274.331868       0.44087
  28     347.3       25.2950       30.4470     1267.8782     1298.3252    1273.030202       0.46213
  27     371.1       24.2590       32.3434     1263.0375     1295.3809    1271.121899       0.67723
  26     394.9       23.2002       34.2149     1257.3469     1291.5618    1268.361614       0.97958
  25     418.6       22.1131       36.0754     1251.3901     1287.4656    1265.352420       1.06836
  24     442.4       21.0211       37.8908     1245.4620     1283.3528    1262.331711       1.07245
  23     466.2       19.9013       39.7048     1239.3762     1279.0810    1259.179666       1.11861
  22     489.9       18.7775       41.4833     1233.1568     1274.6401    1255.862543       1.17719
  21     513.7       17.6538       43.2223     1226.8116     1270.0338    1252.380042       1.23640
  20     537.5       16.5037       44.9653     1220.1629     1265.1282    1248.624499       1.33278
  19     561.3       15.3639       46.6730     1213.3419     1260.0149    1244.650940       1.41075
  18     585.0       14.2414       48.3407     1206.3658     1254.7065    1240.465130       1.48610
  17     608.8       13.1155       50.0042     1199.1415     1249.1456    1236.030125       1.57391
  16     632.6       11.9980       51.6455     1191.9457     1243.5912    1231.593190       1.57460
  15     656.4       10.8968       53.2587     1184.8126     1238.0713    1227.174495       1.56878
  14     680.1        9.8190       54.8400     1177.7612     1232.6012    1222.782219       1.55941
  13     703.9        8.7480       56.4154     1170.7810     1227.1964    1218.448376       1.53801
  12     727.7        7.7003       57.9619     1164.0452     1222.0071    1214.306761       1.46979
  11     751.5        6.6772       59.4861     1157.4888     1216.9749    1210.297671       1.42336
  10     775.2        5.6883       60.9827     1151.1183     1212.1010    1206.412746       1.37870
   9     799.0        4.7261       62.4711     1144.8574     1207.3285    1202.602418       1.35279
   8     822.8        3.8076       63.9336     1138.7985     1202.7321    1198.924507       1.30523
   7     846.6        2.9387       65.3748     1132.9030     1198.2778    1195.339116       1.27293
   6     870.4        2.1332       66.7925     1127.1604     1193.9529    1191.819733       1.24897
   5     894.1        1.4056       68.1857     1121.5673     1189.7530    1188.347443       1.23278
   4     917.9        0.7423       69.5702     1116.1582     1185.7284    1184.986111       1.19339
   3     941.7        0.1548       70.9357     1110.9747     1181.9104    1181.755606       1.14646
   2     965.5       -0.3469       72.2840     1105.9959     1178.2799    1178.626835       1.11035
   1     989.2       -0.7378       73.6135     1101.1905     1174.8040    1175.541768       1.09484
   0    1013.0       -1.0028       74.9297     1096.5367     1171.4664    1172.469135       1.09089

  Modules and versions used in this calculation:

       rrtmg_sw.1col.f90:  $Revision$                    rrtmg_sw_init.f90:  $Revision$        
     rrtmgsw_cldprop.f90:  $Revision$                  rrtmgsw_cldprmc.f90:  NOT USED          
     rrtmg_sw_reftra.f90:  $Revision$                  rrtmg_sw_spcvrt.f90:  NOT USED          
     rrtmg_sw_spcvmc.f90:  NOT USED                    rrtmgsw_setcoef.f90:  NOT USED          
     rrtmg_sw_taumol.f90:  $Revision$                  rrtmg_sw_vrtqdr.f90:  NOT USED          
                rrtatm.f:  NOT USED                             util_xxx.f:  NOT USED          
                 extra.f:  NOT USED                       rrtmg_sw_k_g.f90:  $Revision$        

