

 Wavenumbers:   820. - 50000. cm-1, ATM      1
 LEVEL PRESSURE   UPWARD FLUX   DIFDOWN FLUX  DIRDOWN FLUX  DOWNWARD FLUX   NET FLUX    HEATING RATE
          mb          W/m2          W/m2          W/m2        W/m2          W/m2       degree/day
  60   .000300      268.3405        0.0000      837.8224      837.8224     569.481892       0.00000
  59    0.1000      268.3355        0.0110      837.7137      837.7247     569.389198       7.84611
  58    0.1403      268.3337        0.0154      837.6563      837.6717     569.338049      10.71108
  57    0.1968      268.3314        0.0216      837.5614      837.5830     569.251607      12.91139
  56    0.2760      268.3286        0.0302      837.4070      837.4373     569.108704      15.22702
  55    0.3871      268.3250        0.0422      837.1641      837.2063     568.881280      17.27508
  54    0.5430      268.3209        0.0588      836.7876      836.8464     568.525534      19.25719
  53    0.7617      268.3169        0.0815      836.1942      836.2757     567.958820      21.86823
  52     1.069      268.3143        0.1126      835.2926      835.4052     567.090938      23.87282
  51     1.499      268.3164        0.1544      834.0471      834.2015     565.885095      23.64927
  50     2.102      268.3303        0.2107      832.4995      832.7102     564.379974      21.04364
  49     2.949      268.3692        0.2893      830.7483      831.0376     562.668345      17.06200
  48     4.137      268.4497        0.3985      828.8944      829.2929     560.843140      12.97000
  47     5.803      268.5812        0.5499      826.9459      827.4958     558.914618       9.76954
  46     8.139      268.7608        0.7605      824.8978      825.6583     556.897566       7.28472
  45     11.42      268.9769        1.0535      822.7006      823.7540     554.777115       5.45939
  44     16.01      269.2232        1.4601      820.2525      821.7126     552.489357       4.19921
  43     22.46      269.4921        2.0256      817.4463      819.4719     549.979711       3.28396
  42     31.51      269.7334        2.8116      814.2518      817.0634     547.330020       2.47180
  41     44.20      269.8463        3.9064      810.6480      814.5544     544.708140       1.74365
  40     62.00      269.7624        5.4166      806.4553      811.8720     542.109579       1.23202
  39     85.78      269.3386        7.4078      801.7674      809.1752     539.836568       0.80683
  38     109.5      268.7423        9.4022      797.4817      806.8839     538.141599       0.60164
  37     133.1      268.1234       11.2885      793.5510      804.8395     536.716036       0.51194
  36     156.8      267.4978       13.0928      789.8548      802.9476     535.449766       0.44902
  35     180.6      266.8002       14.9800      786.0084      800.9884     534.188156       0.44789
  34     202.8      266.0966       16.7689      782.2124      798.9812     532.884656       0.49491
  33     228.4      265.3640       18.5640      778.0467      796.6107     531.246728       0.54041
  32     252.2      264.6219       20.3345      773.4741      793.8086     529.186693       0.73123
  31     276.0      263.8816       22.0560      768.4389      790.4949     526.613344       0.91343
  30     299.8      263.1324       23.7631      762.7642      786.5273     523.394908       1.14241
  29     323.5      262.3844       25.4455      756.6288      782.0742     519.689873       1.31513
  28     347.3      261.6483       27.0856      750.2254      777.3110     515.662698       1.42948
  27     371.1      260.9277       28.6788      743.7251      772.4039     511.476136       1.48606
  26     394.9      260.2059       30.2679      736.8957      767.1637     506.957772       1.60383
  25     418.6      259.4975       31.8271      729.8721      761.6992     502.201622       1.68824
  24     442.4      258.8046       33.3592      722.6783      756.0374     497.232838       1.76371
  23     466.2      258.1261       34.8698      715.4381      750.3079     492.181743       1.79293
  22     489.9      257.4751       36.3389      708.2772      744.6161     487.140983       1.78926
  21     513.7      256.8452       37.7922      701.0441      738.8363     481.991076       1.82800
  20     537.5      256.2519       39.2080      693.8325      733.0405     476.788582       1.84667
  19     561.3      255.6998       40.5895      686.6319      727.2214     471.521584       1.86957
  18     585.0      255.1806       41.9669      679.3701      721.3370     466.156349       1.90444
  17     608.8      254.7109       43.3080      672.2525      715.5605     460.849545       1.88370
  16     632.6      254.2975       44.6141      665.2624      709.8765     455.578977       1.87083
  15     656.4      253.9470       45.9122      658.1915      704.1037     450.156689       1.92469
  14     680.1      253.6876       47.1763      651.1209      698.2972     444.609600       1.96899
  13     703.9      253.5380       48.4071      644.0582      692.4653     438.927315       2.01698
  12     727.7      253.5264       49.6235      636.8758      686.4993     432.972922       2.11356
  11     751.5      253.7088       50.8245      629.4911      680.3156     426.606783       2.25972
  10     775.2      254.1476       51.9953      621.9804      673.9756     419.827999       2.40619
   9     799.0      254.9339       53.1360      614.3441      667.4801     412.546174       2.58475
   8     822.8      196.3494      145.1429      456.5086      601.6514     405.302065       2.57136
   7     846.6      139.7247      199.5467      339.3400      538.8867     399.162025       2.17946
   6     870.4       84.5235      226.3022      252.3345      478.6367     394.113277       1.79210
   5     894.1       30.2961      232.7227      187.6922      420.4148     390.118720       1.41790
   4     917.9       29.6576      230.8059      185.5360      416.3419     386.684265       1.21909
   3     941.7       29.0294      228.9421      183.4215      412.3636     383.334153       1.18915
   2     965.5       28.4187      227.1353      181.3601      408.4954     380.076640       1.15628
   1     989.2       27.8284      225.3800      179.3501      404.7301     376.901673       1.12675
   0    1013.0       27.2625      223.6709      177.3871      401.0580     373.795447       1.10281



 Wavenumbers:  2600. -  3250. cm-1, ATM      1
 LEVEL PRESSURE   UPWARD FLUX   DIFDOWN FLUX  DIRDOWN FLUX  DOWNWARD FLUX   NET FLUX    HEATING RATE
          mb          W/m2          W/m2          W/m2        W/m2          W/m2       degree/day
  60   .000300        1.0911        0.0000        7.3841        7.3841       6.292990       0.00000
  59    0.1000        1.0911        0.0000        7.3840        7.3840       6.292918       0.00613
  58    0.1403        1.0911        0.0000        7.3840        7.3840       6.292888       0.00614
  57    0.1968        1.0911        0.0000        7.3839        7.3839       6.292847       0.00616
  56    0.2760        1.0911        0.0000        7.3839        7.3839       6.292790       0.00613
  55    0.3871        1.0911        0.0000        7.3838        7.3838       6.292705       0.00641
  54    0.5430        1.0911        0.0000        7.3837        7.3837       6.292580       0.00678
  53    0.7617        1.0911        0.0000        7.3835        7.3835       6.292383       0.00761
  52     1.069        1.0911        0.0000        7.3831        7.3831       6.292052       0.00908
  51     1.499        1.0911        0.0000        7.3825        7.3825       6.291444       0.01193
  50     2.102        1.0911        0.0000        7.3814        7.3814       6.290355       0.01522
  49     2.949        1.0911        0.0000        7.3795        7.3795       6.288470       0.01880
  48     4.137        1.0911        0.0000        7.3765        7.3765       6.285456       0.02142
  47     5.803        1.0911        0.0000        7.3721        7.3721       6.281025       0.02245
  46     8.139        1.0911        0.0000        7.3661        7.3661       6.275017       0.02170
  45     11.42        1.0911        0.0000        7.3586        7.3586       6.267510       0.01933
  44     16.01        1.0911        0.0000        7.3500        7.3500       6.258934       0.01574
  43     22.46        1.0911        0.0000        7.3407        7.3407       6.249616       0.01219
  42     31.51        1.0911        0.0000        7.3297        7.3297       6.238648       0.01023
  41     44.20        1.0911        0.0000        7.3134        7.3134       6.222289       0.01088
  40     62.00        1.0912        0.0000        7.2860        7.2860       6.194865       0.01300
  39     85.78        1.0912        0.0000        7.2438        7.2439       6.152638       0.01499
  38     109.5        1.0914        0.0000        7.1969        7.1970       6.105595       0.01670
  37     133.1        1.0915        0.0001        7.1517        7.1518       6.060305       0.01626
  36     156.8        1.0917        0.0001        7.1092        7.1093       6.017646       0.01513
  35     180.6        1.0919        0.0001        7.0662        7.0663       5.974423       0.01535
  34     202.8        1.0921        0.0001        7.0262        7.0262       5.934145       0.01529
  33     228.4        1.0925        0.0001        6.9846        6.9847       5.892259       0.01382
  32     252.2        1.0930        0.0001        6.9407        6.9408       5.847801       0.01578
  31     276.0        1.0937        0.0001        6.8941        6.8942       5.800584       0.01676
  30     299.8        1.0945        0.0001        6.8424        6.8426       5.748018       0.01866
  29     323.5        1.0957        0.0001        6.7849        6.7851       5.689357       0.02082
  28     347.3        1.0971        0.0001        6.7206        6.7207       5.623601       0.02334
  27     371.1        1.0989        0.0001        6.6496        6.6497       5.550813       0.02584
  26     394.9        1.1011        0.0001        6.5676        6.5677       5.466657       0.02987
  25     418.6        1.1037        0.0002        6.4741        6.4743       5.370590       0.03410
  24     442.4        1.1068        0.0002        6.3671        6.3673       5.260463       0.03909
  23     466.2        1.1106        0.0002        6.2486        6.2487       5.138169       0.04341
  22     489.9        1.1149        0.0002        6.1205        6.1206       5.005760       0.04700
  21     513.7        1.1201        0.0002        5.9812        5.9814       4.861298       0.05128
  20     537.5        1.1262        0.0002        5.8338        5.8340       4.707811       0.05448
  19     561.3        1.1334        0.0002        5.6819        5.6821       4.548676       0.05649
  18     585.0        1.1418        0.0002        5.5274        5.5276       4.385788       0.05782
  17     608.8        1.1515        0.0002        5.3761        5.3763       4.224764       0.05716
  16     632.6        1.1626        0.0002        5.2281        5.2283       4.065713       0.05646
  15     656.4        1.1757        0.0002        5.0791        5.0793       3.903547       0.05756
  14     680.1        1.1913        0.0002        4.9299        4.9301       3.738737       0.05850
  13     703.9        1.2099        0.0002        4.7798        4.7800       3.570047       0.05988
  12     727.7        1.2327        0.0002        4.6253        4.6255       3.392757       0.06293
  11     751.5        1.2614        0.0002        4.4633        4.4635       3.202066       0.06769
  10     775.2        1.2977        0.0002        4.2949        4.2951       2.997380       0.07265
   9     799.0        1.3444        0.0002        4.1205        4.1207       2.776358       0.07845
   8     822.8        1.0053        0.5944        2.9669        3.5613       2.556018       0.07821
   7     846.6        0.6908        0.9240        2.1368        3.0607       2.369944       0.06605
   6     870.4        0.3934        1.0718        1.5400        2.6119       2.218461       0.05377
   5     894.1        0.1059        1.0949        1.1110        2.2059       2.099964       0.04206
   4     917.9        0.1089        1.0439        1.0651        2.1090       2.000063       0.03546
   3     941.7        0.1123        0.9958        1.0211        2.0169       1.904587       0.03389
   2     965.5        0.1163        0.9505        0.9791        1.9296       1.813301       0.03240
   1     989.2        0.1210        0.9076        0.9392        1.8468       1.725837       0.03104
   0    1013.0        0.1265        0.8669        0.9010        1.7679       1.641341       0.03000



 Wavenumbers:  3250. -  4000. cm-1, ATM      1
 LEVEL PRESSURE   UPWARD FLUX   DIFDOWN FLUX  DIRDOWN FLUX  DOWNWARD FLUX   NET FLUX    HEATING RATE
          mb          W/m2          W/m2          W/m2        W/m2          W/m2       degree/day
  60   .000300        0.0115        0.0000       12.4485       12.4485      12.436926       0.00000
  59    0.1000        0.0115        0.0000       12.4290       12.4290      12.417424       1.65079
  58    0.1403        0.0115        0.0000       12.4252       12.4252      12.413710       0.77776
  57    0.1968        0.0115        0.0000       12.4208       12.4208      12.409237       0.66803
  56    0.2760        0.0115        0.0000       12.4156       12.4156      12.404074       0.55013
  55    0.3871        0.0115        0.0000       12.4096       12.4096      12.398041       0.45825
  54    0.5430        0.0115        0.0000       12.4022       12.4022      12.390713       0.39669
  53    0.7617        0.0115        0.0000       12.3928       12.3928      12.381253       0.36506
  52     1.069        0.0115        0.0000       12.3807       12.3807      12.369212       0.33119
  51     1.499        0.0115        0.0000       12.3664       12.3664      12.354855       0.28159
  50     2.102        0.0115        0.0000       12.3498       12.3498      12.338221       0.23256
  49     2.949        0.0115        0.0000       12.3302       12.3302      12.318686       0.19473
  48     4.137        0.0115        0.0000       12.3067       12.3068      12.295221       0.16675
  47     5.803        0.0115        0.0000       12.2766       12.2766      12.265103       0.15257
  46     8.139        0.0115        0.0000       12.2347       12.2348      12.223235       0.15121
  45     11.42        0.0115        0.0000       12.1733       12.1733      12.161822       0.15812
  44     16.01        0.0115        0.0000       12.0830       12.0830      12.071511       0.16577
  43     22.46        0.0115        0.0000       11.9527       11.9527      11.941221       0.17049
  42     31.51        0.0115        0.0000       11.7748       11.7748      11.763336       0.16594
  41     44.20        0.0115        0.0001       11.5551       11.5552      11.543699       0.14607
  40     62.00        0.0115        0.0001       11.3050       11.3051      11.293631       0.11856
  39     85.78        0.0114        0.0001       11.0142       11.0143      11.002843       0.10322
  38     109.5        0.0114        0.0001       10.7175       10.7176      10.706223       0.10529
  37     133.1        0.0114        0.0002       10.4459       10.4460      10.434676       0.09752
  36     156.8        0.0113        0.0002       10.1944       10.1946      10.183288       0.08914
  35     180.6        0.0113        0.0002        9.9218        9.9220       9.910730       0.09676
  34     202.8        0.0113        0.0002        9.5970        9.5973       9.585959       0.12331
  33     228.4        0.0113        0.0002        9.1820        9.1823       9.171020       0.13690
  32     252.2        0.0113        0.0003        8.7004        8.7006       8.689375       0.17096
  31     276.0        0.0112        0.0003        8.1693        8.1695       8.158294       0.18851
  30     299.8        0.0112        0.0003        7.5886        7.5889       7.577628       0.20611
  29     323.5        0.0113        0.0003        6.9823        6.9825       6.971275       0.21523
  28     347.3        0.0113        0.0003        6.3629        6.3631       6.351825       0.21988
  27     371.1        0.0113        0.0002        5.7699        5.7701       5.758796       0.21050
  26     394.9        0.0114        0.0002        5.2041        5.2043       5.192880       0.20088
  25     418.6        0.0115        0.0002        4.6962        4.6964       4.684857       0.18033
  24     442.4        0.0117        0.0002        4.2409        4.2411       4.229431       0.16166
  23     466.2        0.0119        0.0002        3.8328        3.8330       3.821067       0.14495
  22     489.9        0.0122        0.0002        3.4648        3.4650       3.452870       0.13070
  21     513.7        0.0125        0.0002        3.1218        3.1220       3.109457       0.12190
  20     537.5        0.0130        0.0002        2.8040        2.8042       2.791169       0.11298
  19     561.3        0.0136        0.0002        2.5083        2.5084       2.494793       0.10520
  18     585.0        0.0144        0.0001        2.2301        2.2302       2.215794       0.09903
  17     608.8        0.0155        0.0001        1.9731        1.9732       1.957750       0.09159
  16     632.6        0.0168        0.0001        1.7337        1.7338       1.717083       0.08543
  15     656.4        0.0185        0.0001        1.5041        1.5042       1.485709       0.08213
  14     680.1        0.0209        0.0001        1.2888        1.2888       1.267978       0.07729
  13     703.9        0.0241        0.0001        1.0908        1.0909       1.066757       0.07143
  12     727.7        0.0287        0.0001        0.9082        0.9083       0.879561       0.06645
  11     751.5        0.0356        0.0001        0.7390        0.7391       0.703492       0.06250
  10     775.2        0.0462        0.0000        0.5856        0.5857       0.539469       0.05822
   9     799.0        0.0634        0.0000        0.4484        0.4484       0.385062       0.05481
   8     822.8        0.0371        0.0417        0.2477        0.2894       0.252353       0.04711
   7     846.6        0.0201        0.0466        0.1332        0.1798       0.159778       0.03286
   6     870.4        0.0087        0.0377        0.0696        0.1073       0.098613       0.02171
   5     894.1        0.0000        0.0258        0.0352        0.0610       0.061020       0.01334
   4     917.9        0.0000        0.0151        0.0228        0.0378       0.037809       0.00824
   3     941.7        0.0000        0.0083        0.0140        0.0223       0.022325       0.00550
   2     965.5        0.0000        0.0043        0.0083        0.0126       0.012553       0.00347
   1     989.2        0.0001        0.0021        0.0046        0.0068       0.006669       0.00209
   0    1013.0        0.0002        0.0010        0.0025        0.0034       0.003245       0.00122



 Wavenumbers:  4000. -  4650. cm-1, ATM      1
 LEVEL PRESSURE   UPWARD FLUX   DIFDOWN FLUX  DIRDOWN FLUX  DOWNWARD FLUX   NET FLUX    HEATING RATE
          mb          W/m2          W/m2          W/m2        W/m2          W/m2       degree/day
  60   .000300        3.6339        0.0000       14.6183       14.6183      10.984307       0.00000
  59    0.1000        3.6339        0.0000       14.6182       14.6182      10.984298       0.00076
  58    0.1403        3.6339        0.0000       14.6182       14.6182      10.984295       0.00076
  57    0.1968        3.6339        0.0000       14.6182       14.6182      10.984290       0.00077
  56    0.2760        3.6339        0.0000       14.6182       14.6182      10.984282       0.00076
  55    0.3871        3.6339        0.0000       14.6182       14.6182      10.984272       0.00080
  54    0.5430        3.6339        0.0000       14.6182       14.6182      10.984256       0.00085
  53    0.7617        3.6339        0.0000       14.6182       14.6182      10.984232       0.00095
  52     1.069        3.6339        0.0000       14.6181       14.6181      10.984190       0.00114
  51     1.499        3.6339        0.0000       14.6180       14.6181      10.984113       0.00152
  50     2.102        3.6339        0.0000       14.6179       14.6179      10.983972       0.00197
  49     2.949        3.6339        0.0000       14.6176       14.6177      10.983719       0.00252
  48     4.137        3.6339        0.0000       14.6172       14.6172      10.983290       0.00305
  47     5.803        3.6339        0.0000       14.6165       14.6165      10.982597       0.00351
  46     8.139        3.6339        0.0000       14.6154       14.6154      10.981514       0.00391
  45     11.42        3.6339        0.0000       14.6137       14.6138      10.979844       0.00430
  44     16.01        3.6339        0.0001       14.6112       14.6112      10.977312       0.00465
  43     22.46        3.6339        0.0001       14.6074       14.6074      10.973534       0.00494
  42     31.51        3.6339        0.0001       14.6017       14.6018      10.967879       0.00527
  41     44.20        3.6339        0.0002       14.5927       14.5929      10.958943       0.00594
  40     62.00        3.6340        0.0003       14.5788       14.5791      10.945055       0.00658
  39     85.78        3.6342        0.0004       14.5592       14.5596      10.925427       0.00697
  38     109.5        3.6345        0.0005       14.5382       14.5386      10.904173       0.00754
  37     133.1        3.6348        0.0006       14.5177       14.5183      10.883483       0.00743
  36     156.8        3.6352        0.0007       14.4977       14.4983      10.863133       0.00722
  35     180.6        3.6357        0.0008       14.4759       14.4767      10.840944       0.00788
  34     202.8        3.6364        0.0009       14.4536       14.4545      10.818126       0.00866
  33     228.4        3.6372        0.0010       14.4280       14.4290      10.791792       0.00869
  32     252.2        3.6383        0.0011       14.3983       14.3994      10.761061       0.01091
  31     276.0        3.6398        0.0012       14.3635       14.3647      10.724963       0.01281
  30     299.8        3.6416        0.0013       14.3217       14.3230      10.681360       0.01548
  29     323.5        3.6439        0.0014       14.2720       14.2734      10.629480       0.01842
  28     347.3        3.6468        0.0015       14.2129       14.2144      10.567571       0.02198
  27     371.1        3.6500        0.0016       14.1438       14.1453      10.495286       0.02566
  26     394.9        3.6537        0.0016       14.0605       14.0621      10.408407       0.03084
  25     418.6        3.6578        0.0017       13.9639       13.9657      10.307846       0.03570
  24     442.4        3.6625        0.0018       13.8548       13.8566      10.194094       0.04038
  23     466.2        3.6678        0.0019       13.7365       13.7384      10.070652       0.04382
  22     489.9        3.6737        0.0020       13.6136       13.6156       9.941932       0.04569
  21     513.7        3.6805        0.0021       13.4859       13.4880       9.807477       0.04773
  20     537.5        3.6884        0.0021       13.3568       13.3589       9.670504       0.04862
  19     561.3        3.6975        0.0022       13.2261       13.2283       9.530801       0.04959
  18     585.0        3.7082        0.0023       13.0915       13.0938       9.385594       0.05154
  17     608.8        3.7204        0.0024       12.9542       12.9566       9.236133       0.05305
  16     632.6        3.7344        0.0024       12.8109       12.8134       9.078908       0.05581
  15     656.4        3.7511        0.0025       12.6541       12.6566       8.905438       0.06157
  14     680.1        3.7710        0.0025       12.4832       12.4858       8.714789       0.06767
  13     703.9        3.7948        0.0026       12.2977       12.3003       8.505542       0.07427
  12     727.7        3.8241        0.0026       12.0950       12.0976       8.273554       0.08235
  11     751.5        3.8613        0.0027       11.8732       11.8759       8.014576       0.09193
  10     775.2        3.9091        0.0027       11.6374       11.6401       7.731004       0.10066
   9     799.0        3.9718        0.0028       11.3910       11.3938       7.421946       0.10970
   8     822.8        2.9781        1.7084        8.3837       10.0921       7.113989       0.10931
   7     846.6        2.0317        2.7125        6.1756        8.8881       6.856356       0.09145
   6     870.4        1.1192        3.2139        4.5535        7.7674       6.648180       0.07389
   5     894.1        0.2276        3.3532        3.3601        6.7133       6.485709       0.05767
   4     917.9        0.2303        3.2819        3.2961        6.5780       6.347748       0.04897
   3     941.7        0.2334        3.2132        3.2339        6.4470       6.213675       0.04759
   2     965.5        0.2369        3.1464        3.1732        6.3196       6.082654       0.04651
   1     989.2        0.2411        3.0811        3.1139        6.1949       5.953840       0.04571
   0    1013.0        0.2460        3.0170        3.0552        6.0722       5.826162       0.04533



 Wavenumbers:  4650. -  5150. cm-1, ATM      1
 LEVEL PRESSURE   UPWARD FLUX   DIFDOWN FLUX  DIRDOWN FLUX  DOWNWARD FLUX   NET FLUX    HEATING RATE
          mb          W/m2          W/m2          W/m2        W/m2          W/m2       degree/day
  60   .000300        2.6725        0.0000       13.8369       13.8369      11.164357       0.00000
  59    0.1000        2.6725        0.0000       13.8347       13.8347      11.162239       0.17928
  58    0.1403        2.6725        0.0000       13.8339       13.8339      11.161400       0.17564
  57    0.1968        2.6725        0.0000       13.8327       13.8327      11.160235       0.17409
  56    0.2760        2.6725        0.0000       13.8312       13.8312      11.158645       0.16936
  55    0.3871        2.6725        0.0000       13.8290       13.8290      11.156466       0.16558
  54    0.5430        2.6725        0.0000       13.8260       13.8260      11.153530       0.15891
  53    0.7617        2.6725        0.0000       13.8221       13.8221      11.149626       0.15065
  52     1.069        2.6725        0.0000       13.8170       13.8170      11.144473       0.14174
  51     1.499        2.6725        0.0000       13.8105       13.8105      11.137989       0.12716
  50     2.102        2.6725        0.0000       13.8026       13.8026      11.130118       0.11005
  49     2.949        2.6725        0.0000       13.7933       13.7933      11.120819       0.09269
  48     4.137        2.6725        0.0000       13.7830       13.7831      11.110575       0.07280
  47     5.803        2.6725        0.0000       13.7724       13.7724      11.099926       0.05395
  46     8.139        2.6725        0.0001       13.7615       13.7616      11.089096       0.03911
  45     11.42        2.6725        0.0001       13.7497       13.7498      11.077319       0.03032
  44     16.01        2.6725        0.0001       13.7347       13.7348      11.062278       0.02761
  43     22.46        2.6725        0.0001       13.7122       13.7123      11.039766       0.02946
  42     31.51        2.6726        0.0002       13.6758       13.6760      11.003416       0.03391
  41     44.20        2.6728        0.0003       13.6167       13.6170      10.944239       0.03936
  40     62.00        2.6731        0.0004       13.5244       13.5248      10.851730       0.04386
  39     85.78        2.6736        0.0005       13.3944       13.3950      10.721348       0.04628
  38     109.5        2.6744        0.0007       13.2650       13.2657      10.591360       0.04614
  37     133.1        2.6753        0.0008       13.1487       13.1496      10.474318       0.04203
  36     156.8        2.6763        0.0010       13.0449       13.0458      10.369520       0.03716
  35     180.6        2.6776        0.0011       12.9437       12.9448      10.267138       0.03635
  34     202.8        2.6791        0.0012       12.8534       12.8547      10.175521       0.03479
  33     228.4        2.6809        0.0014       12.7658       12.7672      10.086207       0.02947
  32     252.2        2.6831        0.0015       12.6801       12.6816       9.998550       0.03111
  31     276.0        2.6856        0.0016       12.5950       12.5967       9.911025       0.03107
  30     299.8        2.6888        0.0018       12.5053       12.5070       9.818274       0.03292
  29     323.5        2.6926        0.0019       12.4093       12.4112       9.718534       0.03540
  28     347.3        2.6971        0.0020       12.3075       12.3095       9.612394       0.03768
  27     371.1        2.7023        0.0021       12.1993       12.2014       9.499184       0.04018
  26     394.9        2.7083        0.0023       12.0815       12.0838       9.375500       0.04390
  25     418.6        2.7152        0.0024       11.9549       11.9572       9.242012       0.04738
  24     442.4        2.7231        0.0025       11.8185       11.8210       9.097887       0.05116
  23     466.2        2.7321        0.0026       11.6730       11.6756       8.943466       0.05481
  22     489.9        2.7422        0.0027       11.5203       11.5230       8.780749       0.05776
  21     513.7        2.7537        0.0028       11.3577       11.3604       8.606718       0.06177
  20     537.5        2.7667        0.0029       11.1878       11.1907       8.424011       0.06485
  19     561.3        2.7813        0.0029       11.0105       11.0134       8.232081       0.06813
  18     585.0        2.7981        0.0030       10.8249       10.8279       8.029794       0.07180
  17     608.8        2.8168        0.0031       10.6366       10.6397       7.822897       0.07344
  16     632.6        2.8377        0.0032       10.4463       10.4495       7.611759       0.07495
  15     656.4        2.8619        0.0032       10.2497       10.2529       7.390966       0.07837
  14     680.1        2.8895        0.0033       10.0509       10.0542       7.164735       0.08030
  13     703.9        2.9209        0.0033        9.8514        9.8547       6.933805       0.08197
  12     727.7        2.9577        0.0034        9.6483        9.6517       6.694023       0.08511
  11     751.5        3.0016        0.0034        9.4402        9.4436       6.442089       0.08943
  10     775.2        3.0540        0.0035        9.2294        9.2329       6.178900       0.09342
   9     799.0        3.1174        0.0035        9.0169        9.0204       5.902983       0.09794
   8     822.8        2.3383        1.3480        6.6287        7.9767       5.638378       0.09392
   7     846.6        1.5965        2.1359        4.8761        7.0120       5.415528       0.07910
   6     870.4        0.8810        2.5255        3.5889        6.1143       5.233330       0.06467
   5     894.1        0.1821        2.6288        2.6429        5.2717       5.089578       0.05103
   4     917.9        0.1850        2.5643        2.5866        5.1509       4.965934       0.04389
   3     941.7        0.1881        2.5019        2.5315        5.0334       4.845262       0.04283
   2     965.5        0.1917        2.4416        2.4779        4.9195       4.727789       0.04170
   1     989.2        0.1958        2.3834        2.4255        4.8089       4.613161       0.04068
   0    1013.0        0.2004        2.3272        2.3743        4.7015       4.501142       0.03977



 Wavenumbers:  5150. -  6150. cm-1, ATM      1
 LEVEL PRESSURE   UPWARD FLUX   DIFDOWN FLUX  DIRDOWN FLUX  DOWNWARD FLUX   NET FLUX    HEATING RATE
          mb          W/m2          W/m2          W/m2        W/m2          W/m2       degree/day
  60   .000300        6.2638        0.0000       34.6891       34.6891      28.425235       0.00000
  59    0.1000        6.2638        0.0000       34.6886       34.6886      28.424739       0.04201
  58    0.1403        6.2638        0.0000       34.6884       34.6884      28.424539       0.04194
  57    0.1968        6.2638        0.0000       34.6881       34.6881      28.424257       0.04210
  56    0.2760        6.2638        0.0000       34.6877       34.6877      28.423866       0.04167
  55    0.3871        6.2638        0.0000       34.6871       34.6871      28.423316       0.04177
  54    0.5430        6.2638        0.0000       34.6864       34.6864      28.422550       0.04147
  53    0.7617        6.2638        0.0000       34.6853       34.6853      28.421480       0.04128
  52     1.069        6.2638        0.0000       34.6838       34.6838      28.419973       0.04146
  51     1.499        6.2638        0.0000       34.6817       34.6817      28.417882       0.04102
  50     2.102        6.2638        0.0001       34.6787       34.6788      28.414990       0.04043
  49     2.949        6.2638        0.0001       34.6746       34.6747      28.410907       0.04071
  48     4.137        6.2638        0.0001       34.6689       34.6690      28.405226       0.04037
  47     5.803        6.2638        0.0002       34.6610       34.6612      28.397392       0.03968
  46     8.139        6.2638        0.0002       34.6502       34.6505      28.386656       0.03877
  45     11.42        6.2638        0.0003       34.6356       34.6359      28.372077       0.03754
  44     16.01        6.2638        0.0005       34.6159       34.6164      28.352528       0.03588
  43     22.46        6.2639        0.0007       34.5899       34.5906      28.326697       0.03380
  42     31.51        6.2640        0.0009       34.5564       34.5573      28.293332       0.03113
  41     44.20        6.2641        0.0013       34.5139       34.5152      28.251100       0.02809
  40     62.00        6.2644        0.0018       34.4619       34.4637      28.199230       0.02459
  39     85.78        6.2649        0.0025       34.4020       34.4045      28.139546       0.02119
  38     109.5        6.2655        0.0032       34.3491       34.3523      28.086811       0.01872
  37     133.1        6.2660        0.0038       34.3031       34.3069      28.040926       0.01648
  36     156.8        6.2666        0.0045       34.2595       34.2640      27.997386       0.01544
  35     180.6        6.2672        0.0051       34.2031       34.2082      27.941026       0.02001
  34     202.8        6.2678        0.0058       34.1091       34.1149      27.847133       0.03565
  33     228.4        6.2685        0.0064       33.9252       33.9317      27.663157       0.06070
  32     252.2        6.2693        0.0070       33.6087       33.6157      27.346435       0.11242
  31     276.0        6.2701        0.0076       33.1225       33.1301      26.860002       0.17266
  30     299.8        6.2712        0.0081       32.4763       32.4845      26.213265       0.22956
  29     323.5        6.2725        0.0086       31.7610       31.7696      25.497079       0.25422
  28     347.3        6.2741        0.0090       31.0137       31.0228      24.748655       0.26566
  27     371.1        6.2761        0.0094       30.2247       30.2341      23.958046       0.28063
  26     394.9        6.2785        0.0098       29.3520       29.3617      23.083264       0.31051
  25     418.6        6.2814        0.0101       28.4400       28.4501      22.168660       0.32465
  24     442.4        6.2850        0.0103       27.5194       27.5297      21.244744       0.32795
  23     466.2        6.2893        0.0106       26.6227       26.6333      20.344032       0.31972
  22     489.9        6.2945        0.0108       25.7669       25.7777      19.483207       0.30556
  21     513.7        6.3009        0.0110       24.9371       24.9481      18.647248       0.29673
  20     537.5        6.3087        0.0113       24.1537       24.1650      17.856311       0.28075
  19     561.3        6.3182        0.0115       23.4247       23.4362      17.117953       0.26209
  18     585.0        6.3300        0.0117       22.7500       22.7617      16.431725       0.24358
  17     608.8        6.3439        0.0119       22.1480       22.1599      15.815993       0.21856
  16     632.6        6.3606        0.0121       21.6116       21.6237      15.263096       0.19626
  15     656.4        6.3813        0.0124       21.1193       21.1317      14.750411       0.18198
  14     680.1        6.4067        0.0126       20.6722       20.6848      14.278060       0.16767
  13     703.9        6.4381        0.0128       20.2664       20.2792      13.841064       0.15512
  12     727.7        6.4779        0.0131       19.8884       19.9015      13.423589       0.14819
  11     751.5        6.5294        0.0133       19.5264       19.5398      13.010360       0.14668
  10     775.2        6.5964        0.0135       19.1765       19.1901      12.593653       0.14791
   9     799.0        6.6848        0.0137       18.8290       18.8428      12.157990       0.15464
   8     822.8        5.0354        2.8557       13.9062       16.7618      11.726458       0.15318
   7     846.6        3.4601        4.5445       10.2751       14.8195      11.359477       0.13026
   6     870.4        1.9376        5.3986        7.5954       12.9940      11.056345       0.10760
   5     894.1        0.4492        5.6491        5.6170       11.2661      10.816899       0.08499
   4     917.9        0.4519        5.5447        5.5212       11.0659      10.613944       0.07204
   3     941.7        0.4552        5.4466        5.4291       10.8757      10.420509       0.06866
   2     965.5        0.4592        5.3559        5.3418       10.6977      10.238478       0.06461
   1     989.2        0.4641        5.2724        5.2599       10.5323      10.068163       0.06044
   0    1013.0        0.4703        5.1957        5.1834       10.3790       9.908705       0.05661



 Wavenumbers:  6150. -  7700. cm-1, ATM      1
 LEVEL PRESSURE   UPWARD FLUX   DIFDOWN FLUX  DIRDOWN FLUX  DOWNWARD FLUX   NET FLUX    HEATING RATE
          mb          W/m2          W/m2          W/m2        W/m2          W/m2       degree/day
  60   .000300        9.8262        0.0000       64.1588       64.1588      54.332612       0.00000
  59    0.1000        9.8261        0.0000       64.1581       64.1581      54.331952       0.05584
  58    0.1403        9.8261        0.0000       64.1578       64.1578      54.331685       0.05593
  57    0.1968        9.8261        0.0000       64.1574       64.1574      54.331309       0.05625
  56    0.2760        9.8261        0.0000       64.1569       64.1569      54.330785       0.05580
  55    0.3871        9.8261        0.0000       64.1561       64.1562      54.330047       0.05604
  54    0.5430        9.8261        0.0001       64.1551       64.1551      54.329017       0.05578
  53    0.7617        9.8261        0.0001       64.1536       64.1537      54.327575       0.05562
  52     1.069        9.8261        0.0001       64.1515       64.1516      54.325543       0.05590
  51     1.499        9.8260        0.0002       64.1486       64.1487      54.322726       0.05524
  50     2.102        9.8260        0.0003       64.1446       64.1448      54.318838       0.05437
  49     2.949        9.8259        0.0004       64.1389       64.1392      54.313352       0.05468
  48     4.137        9.8258        0.0005       64.1310       64.1315      54.305720       0.05423
  47     5.803        9.8256        0.0007       64.1201       64.1208      54.295171       0.05344
  46     8.139        9.8254        0.0010       64.1051       64.1061      54.280636       0.05249
  45     11.42        9.8251        0.0014       64.0845       64.0859      54.260719       0.05128
  44     16.01        9.8247        0.0019       64.0565       64.0584      54.233668       0.04965
  43     22.46        9.8242        0.0027       64.0187       64.0214      54.197238       0.04767
  42     31.51        9.8234        0.0038       63.9683       63.9721      54.148728       0.04525
  41     44.20        9.8222        0.0053       63.9021       63.9074      54.085180       0.04226
  40     62.00        9.8207        0.0074       63.8170       63.8244      54.003742       0.03861
  39     85.78        9.8186        0.0102       63.7137       63.7239      53.905332       0.03493
  38     109.5        9.8165        0.0131       63.6174       63.6305      53.814006       0.03242
  37     133.1        9.8145        0.0158       63.5307       63.5465      53.732016       0.02944
  36     156.8        9.8125        0.0185       63.4470       63.4655      53.652943       0.02804
  35     180.6        9.8105        0.0213       63.3411       63.3624      53.551951       0.03585
  34     202.8        9.8086        0.0240       63.1774       63.2014      53.392854       0.06041
  33     228.4        9.8067        0.0267       62.8910       62.9177      53.110994       0.09300
  32     252.2        9.8050        0.0293       62.4548       62.4841      52.679048       0.15332
  31     276.0        9.8036        0.0317       61.8034       61.8351      52.031446       0.22987
  30     299.8        9.8027        0.0339       60.8493       60.8832      51.080507       0.33754
  29     323.5        9.8023        0.0359       59.6406       59.6765      49.874247       0.42817
  28     347.3        9.8027        0.0377       58.2994       58.3371      48.534391       0.47559
  27     371.1        9.8042        0.0394       56.9373       56.9768      47.172612       0.48338
  26     394.9        9.8068        0.0410       55.4853       55.5263      45.719511       0.51579
  25     418.6        9.8110        0.0423       53.9434       53.9857      44.174721       0.54834
  24     442.4        9.8170        0.0435       52.3152       52.3587      42.541701       0.57965
  23     466.2        9.8251        0.0445       50.6699       50.7144      40.889323       0.58653
  22     489.9        9.8357        0.0455       49.0609       49.1064      39.270734       0.57453
  21     513.7        9.8496        0.0463       47.4627       47.5091      37.659478       0.57193
  20     537.5        9.8673        0.0471       45.9016       45.9487      36.081393       0.56016
  19     561.3        9.8897        0.0477       44.3828       44.4305      34.540783       0.54685
  18     585.0        9.9179        0.0483       42.9069       42.9552      33.037285       0.53368
  17     608.8        9.9521        0.0489       41.5192       41.5681      31.616046       0.50448
  16     632.6        9.9934        0.0494       40.2123       40.2617      30.268327       0.47838
  15     656.4       10.0449        0.0499       38.9372       38.9871      28.942147       0.47074
  14     680.1       10.1090        0.0503       37.7038       37.7542      27.645141       0.46038
  13     703.9       10.1888        0.0507       36.5148       36.5655      26.376688       0.45025
  12     727.7       10.2906        0.0510       35.3478       35.3988      25.108236       0.45025
  11     751.5       10.4244        0.0512       34.1879       34.2391      23.814727       0.45914
  10     775.2       10.6012        0.0513       33.0529       33.1043      22.503052       0.46559
   9     799.0       10.8411        0.0514       31.9455       31.9969      21.155893       0.47819
   8     822.8        8.1082        4.7449       23.2407       27.9857      19.877429       0.45380
   7     846.6        5.5344        7.4385       16.9459       24.3844      18.849961       0.36471
   6     870.4        3.0718        8.7324       12.3826       21.1150      18.043185       0.28637
   5     894.1        0.6740        9.0397        9.0632       18.1029      17.428857       0.21806
   4     917.9        0.6816        8.7800        8.8235       17.6036      16.921981       0.17992
   3     941.7        0.6906        8.5382        8.5966       17.1348      16.444191       0.16960
   2     965.5        0.7015        8.3131        8.3828       16.6959      15.994410       0.15965
   1     989.2        0.7146        8.1033        8.1810       16.2843      15.569665       0.15073
   0    1013.0        0.7309        7.9067        7.9902       15.8969      15.166032       0.14330



 Wavenumbers:  7700. -  8050. cm-1, ATM      1
 LEVEL PRESSURE   UPWARD FLUX   DIFDOWN FLUX  DIRDOWN FLUX  DOWNWARD FLUX   NET FLUX    HEATING RATE
          mb          W/m2          W/m2          W/m2        W/m2          W/m2       degree/day
  60   .000300        4.8608        0.0000       15.1626       15.1626      10.301856       0.00000
  59    0.1000        4.8608        0.0000       15.1625       15.1625      10.301663       0.01628
  58    0.1403        4.8608        0.0000       15.1624       15.1624      10.301585       0.01637
  57    0.1968        4.8608        0.0000       15.1623       15.1623      10.301475       0.01646
  56    0.2760        4.8609        0.0000       15.1622       15.1622      10.301322       0.01632
  55    0.3871        4.8609        0.0000       15.1620       15.1620      10.301106       0.01640
  54    0.5430        4.8609        0.0000       15.1617       15.1617      10.300804       0.01633
  53    0.7617        4.8610        0.0000       15.1613       15.1614      10.300382       0.01630
  52     1.069        4.8611        0.0001       15.1608       15.1609      10.299785       0.01641
  51     1.499        4.8612        0.0001       15.1601       15.1602      10.298956       0.01626
  50     2.102        4.8614        0.0001       15.1591       15.1592      10.297806       0.01608
  49     2.949        4.8616        0.0002       15.1576       15.1578      10.296175       0.01626
  48     4.137        4.8620        0.0002       15.1556       15.1559      10.293886       0.01627
  47     5.803        4.8625        0.0003       15.1528       15.1531      10.290686       0.01621
  46     8.139        4.8631        0.0004       15.1489       15.1493      10.286210       0.01616
  45     11.42        4.8641        0.0006       15.1434       15.1440      10.279947       0.01613
  44     16.01        4.8654        0.0008       15.1358       15.1366      10.271193       0.01607
  43     22.46        4.8673        0.0012       15.1251       15.1262      10.258948       0.01602
  42     31.51        4.8699        0.0017       15.1101       15.1118      10.241831       0.01597
  41     44.20        4.8737        0.0023       15.0892       15.0916      10.217885       0.01592
  40     62.00        4.8789        0.0032       15.0604       15.0636      10.184695       0.01574
  39     85.78        4.8860        0.0045       15.0223       15.0268      10.140758       0.01560
  38     109.5        4.8934        0.0057       14.9841       14.9899      10.096515       0.01570
  37     133.1        4.9005        0.0069       14.9478       14.9548      10.054277       0.01517
  36     156.8        4.9075        0.0081       14.9129       14.9210      10.013501       0.01446
  35     180.6        4.9151        0.0093       14.8763       14.8856       9.970521       0.01526
  34     202.8        4.9225        0.0105       14.8414       14.8519       9.929434       0.01560
  33     228.4        4.9301        0.0117       14.8062       14.8179       9.887779       0.01374
  32     252.2        4.9379        0.0129       14.7713       14.7842       9.846236       0.01475
  31     276.0        4.9457        0.0141       14.7370       14.7511       9.805337       0.01452
  30     299.8        4.9538        0.0153       14.7027       14.7180       9.764224       0.01459
  29     323.5        4.9620        0.0165       14.6685       14.6850       9.723015       0.01463
  28     347.3        4.9703        0.0176       14.6347       14.6524       9.682066       0.01453
  27     371.1        4.9787        0.0188       14.6014       14.6202       9.641466       0.01441
  26     394.9        4.9875        0.0200       14.5675       14.5875       9.600014       0.01471
  25     418.6        4.9965        0.0211       14.5336       14.5548       9.558248       0.01483
  24     442.4        5.0058        0.0223       14.4995       14.5218       9.516011       0.01499
  23     466.2        5.0154        0.0234       14.4651       14.4886       9.473126       0.01522
  22     489.9        5.0253        0.0246       14.4307       14.4553       9.430031       0.01530
  21     513.7        5.0356        0.0257       14.3957       14.4214       9.385815       0.01570
  20     537.5        5.0462        0.0269       14.3603       14.3872       9.340970       0.01592
  19     561.3        5.0573        0.0280       14.3246       14.3526       9.295301       0.01621
  18     585.0        5.0690        0.0291       14.2875       14.3167       9.247672       0.01691
  17     608.8        5.0811        0.0302       14.2500       14.2803       9.199119       0.01723
  16     632.6        5.0938        0.0313       14.2119       14.2433       9.149478       0.01762
  15     656.4        5.1073        0.0324       14.1722       14.2047       9.097350       0.01850
  14     680.1        5.1216        0.0335       14.1314       14.1649       9.043290       0.01919
  13     703.9        5.1367        0.0346       14.0891       14.1237       8.986945       0.02000
  12     727.7        5.1531        0.0356       14.0446       14.0802       8.927099       0.02124
  11     751.5        5.1711        0.0367       13.9973       14.0340       8.862878       0.02280
  10     775.2        5.1907        0.0378       13.9473       13.9851       8.794376       0.02432
   9     799.0        5.2122        0.0388       13.8944       13.9332       8.721002       0.02604
   8     822.8        3.9622        2.1928       10.4160       12.6087       8.646538       0.02643
   7     846.6        2.7491        3.5233        7.8051       11.3284       8.579330       0.02386
   6     870.4        1.5636        4.2355        5.8487       10.0843       8.520693       0.02081
   5     894.1        0.3978        4.4865        4.3828        8.8692       8.471378       0.01750
   4     917.9        0.3992        4.4625        4.3628        8.8253       8.426050       0.01609
   3     941.7        0.4008        4.4377        4.3422        8.7799       8.379139       0.01665
   2     965.5        0.4024        4.4124        4.3210        8.7333       8.330891       0.01713
   1     989.2        0.4042        4.3863        4.2992        8.6855       8.281297       0.01760
   0    1013.0        0.4062        4.3597        4.2768        8.6365       8.230330       0.01809



 Wavenumbers:  8050. - 12850. cm-1, ATM      1
 LEVEL PRESSURE   UPWARD FLUX   DIFDOWN FLUX  DIRDOWN FLUX  DOWNWARD FLUX   NET FLUX    HEATING RATE
          mb          W/m2          W/m2          W/m2        W/m2          W/m2       degree/day
  60   .000300       61.0981        0.0000      212.2880      212.2880     151.189833       0.00000
  59    0.1000       61.0980        0.0003      212.2876      212.2878     151.189833       0.00000
  58    0.1403       61.0979        0.0004      212.2874      212.2878     151.189833      -0.00000
  57    0.1968       61.0979        0.0005      212.2872      212.2877     151.189833       0.00000
  56    0.2760       61.0978        0.0007      212.2869      212.2876     151.189833       0.00000
  55    0.3871       61.0976        0.0010      212.2864      212.2874     151.189833       0.00000
  54    0.5430       61.0974        0.0014      212.2858      212.2872     151.189833      -0.00000
  53    0.7617       61.0971        0.0019      212.2850      212.2869     151.189833       0.00000
  52     1.069       61.0966        0.0027      212.2837      212.2865     151.189833       0.00000
  51     1.499       61.0960        0.0038      212.2820      212.2858     151.189833      -0.00000
  50     2.102       61.0952        0.0053      212.2797      212.2850     151.189833       0.00000
  49     2.949       61.0940        0.0075      212.2763      212.2838     151.189833       0.00000
  48     4.137       61.0923        0.0105      212.2717      212.2821     151.189833      -0.00000
  47     5.803       61.0899        0.0147      212.2651      212.2798     151.189833       0.00000
  46     8.139       61.0866        0.0206      212.2559      212.2765     151.189833      -0.00000
  45     11.42       61.0820        0.0288      212.2430      212.2719     151.189833       0.00000
  44     16.01       61.0756        0.0404      212.2250      212.2654     151.189833       0.00000
  43     22.46       61.0665        0.0566      212.1998      212.2563     151.189833      -0.00000
  42     31.51       61.0538        0.0793      212.1643      212.2436     151.189833       0.00000
  41     44.20       61.0359        0.1113      212.1145      212.2258     151.189833      -0.00000
  40     62.00       61.0110        0.1558      212.0450      212.2008     151.189833       0.00000
  39     85.78       60.9777        0.2153      211.9522      212.1675     151.189833      -0.00000
  38     109.5       60.9441        0.2758      211.8451      212.1209     151.176825       0.00462
  37     133.1       60.9117        0.3340      211.7421      212.0761     151.164367       0.00447
  36     156.8       60.8802        0.3906      211.6412      212.0318     151.151588       0.00453
  35     180.6       60.8466        0.4508      211.5292      211.9800     151.133347       0.00648
  34     202.8       60.8144        0.5088      211.4041      211.9129     151.098456       0.01325
  33     228.4       60.7817        0.5678      211.2349      211.8027     151.020997       0.02556
  32     252.2       60.7495        0.6269      211.0003      211.6273     150.877766       0.05084
  31     276.0       60.7185        0.6851      210.6760      211.3611     150.642600       0.08347
  30     299.8       60.6888        0.7435      210.2328      210.9762     150.287397       0.12608
  29     323.5       60.6614        0.8016      209.6743      210.4759     149.814508       0.16786
  28     347.3       60.6374        0.8588      209.0175      209.8764     149.238958       0.20430
  27     371.1       60.6174        0.9149      208.2872      209.2021     148.584699       0.23223
  26     394.9       60.6021        0.9712      207.4416      208.4128     147.810752       0.27472
  25     418.6       60.5928        1.0267      206.4758      207.5026     146.909778       0.31981
  24     442.4       60.5910        1.0814      205.3737      206.4551     145.864065       0.37118
  23     466.2       60.5977        1.1354      204.1488      205.2842     144.686542       0.41797
  22     489.9       60.6142        1.1880      202.8236      204.0116     143.397413       0.45759
  21     513.7       60.6431        1.2399      201.3667      202.6066     141.963466       0.50899
  20     537.5       60.6869        1.2902      199.7935      201.0837     140.396856       0.55608
  19     561.3       60.7482        1.3391      198.0998      199.4388     138.690600       0.60565
  18     585.0       60.8305        1.3875      196.2781      197.6656     136.835146       0.65861
  17     608.8       60.9344        1.4344      194.3934      195.8279     134.893530       0.68919
  16     632.6       61.0634        1.4799      192.4530      193.9329     132.869459       0.71846
  15     656.4       61.2280        1.5247      190.4000      191.9247     130.696715       0.77123
  14     680.1       61.4356        1.5676      188.2528      189.8204     128.384760       0.82065
  13     703.9       61.6960        1.6087      186.0204      187.6291     125.933051       0.87026
  12     727.7       62.0282        1.6484      183.6647      185.3131     123.284847       0.94000
  11     751.5       62.4612        1.6863      181.1466      182.8329     120.371699       1.03405
  10     775.2       63.0218        1.7218      178.4925      180.2143     117.192489       1.12849
   9     799.0       63.7541        1.7548      175.7106      177.4654     113.711349       1.23566
   8     822.8       48.1837       28.3147      130.0640      158.3787     110.194963       1.24817
   7     846.6       33.2745       44.1513       96.3088      140.4601     107.185593       1.06820
   6     870.4       18.8282       52.1798       71.3419      123.5217     104.693471       0.88460
   5     894.1        4.6902       54.5368       52.8703      107.4072     102.717033       0.70155
   4     917.9        4.7069       53.6518       52.0691      105.7209     101.013975       0.60452
   3     941.7        4.7298       52.7956       51.2848      104.0804      99.350573       0.59044
   2     965.5        4.7598       51.9707       50.5220      102.4927      97.732954       0.57419
   1     989.2        4.7984       51.1742       49.7802      100.9544      96.156030       0.55963
   0    1013.0        4.8478       50.4041       49.0576       99.4617      94.613954       0.54749



 Wavenumbers: 12850. - 16000. cm-1, ATM      1
 LEVEL PRESSURE   UPWARD FLUX   DIFDOWN FLUX  DIRDOWN FLUX  DOWNWARD FLUX   NET FLUX    HEATING RATE
          mb          W/m2          W/m2          W/m2        W/m2          W/m2       degree/day
  60   .000300       46.0939        0.0000      133.0172      133.0172      86.923252       0.00000
  59    0.1000       46.0937        0.0006      133.0095      133.0101      86.916352       0.58405
  58    0.1403       46.0937        0.0008      133.0064      133.0072      86.913529       0.59118
  57    0.1968       46.0937        0.0011      133.0021      133.0032      86.909548       0.59465
  56    0.2760       46.0937        0.0015      132.9962      132.9977      86.904029       0.58802
  55    0.3871       46.0937        0.0021      132.9880      132.9901      86.896372       0.58163
  54    0.5430       46.0940        0.0030      132.9769      132.9799      86.885924       0.56556
  53    0.7617       46.0945        0.0042      132.9618      132.9660      86.871515       0.55600
  52     1.069       46.0958        0.0059      132.9413      132.9472      86.851415       0.55290
  51     1.499       46.0983        0.0083      132.9135      132.9217      86.823412       0.54920
  50     2.102       46.1036        0.0115      132.8748      132.8864      86.782813       0.56763
  49     2.949       46.1141        0.0162      132.8176      132.8337      86.719662       0.62950
  48     4.137       46.1330        0.0227      132.7325      132.7552      86.622224       0.69240
  47     5.803       46.1624        0.0318      132.6115      132.6433      86.480892       0.71596
  46     8.139       46.2024        0.0445      132.4493      132.4938      86.291394       0.68438
  45     11.42       46.2520        0.0623      132.2424      132.3047      86.052692       0.61457
  44     16.01       46.3111        0.0871      131.9828      132.0699      85.758761       0.53951
  43     22.46       46.3798        0.1218      131.6592      131.7811      85.401303       0.46775
  42     31.51       46.4514        0.1704      131.2747      131.4451      84.993671       0.38027
  41     44.20       46.5124        0.2385      130.8450      131.0835      84.571085       0.28104
  40     62.00       46.5555        0.3332      130.3669      130.7001      84.144557       0.20222
  39     85.78       46.5604        0.4595      129.8828      130.3424      83.781990       0.12870
  38     109.5       46.5454        0.5885      129.4797      130.0682      83.522789       0.09201
  37     133.1       46.5218        0.7124      129.1217      129.8341      83.312341       0.07557
  36     156.8       46.4937        0.8326      128.7892      129.6218      83.128083       0.06534
  35     180.6       46.4573        0.9601      128.4511      129.4112      82.953912       0.06183
  34     202.8       46.4159        1.0826      128.1377      129.2203      82.804427       0.05676
  33     228.4       46.3707        1.2073      127.8216      129.0289      82.658171       0.04826
  32     252.2       46.3238        1.3320      127.5049      128.8369      82.513162       0.05147
  31     276.0       46.2760        1.4550      127.1922      128.6472      82.371218       0.05038
  30     299.8       46.2270        1.5787      126.8751      128.4538      82.226775       0.05127
  29     323.5       46.1784        1.7023      126.5537      128.2560      82.077665       0.05293
  28     347.3       46.1310        1.8246      126.2298      128.0543      81.923358       0.05477
  27     371.1       46.0853        1.9450      125.9047      127.8497      81.764440       0.05641
  26     394.9       46.0405        2.0667      125.5688      127.6355      81.595046       0.06013
  25     418.6       45.9979        2.1877      125.2257      127.4135      81.415611       0.06369
  24     442.4       45.9580        2.3083      124.8736      127.1819      81.223871       0.06806
  23     466.2       45.9210        2.4287      124.5111      126.9398      81.018794       0.07279
  22     489.9       45.8879        2.5473      124.1420      126.6894      80.801464       0.07714
  21     513.7       45.8589        2.6661      123.7577      126.4237      80.564795       0.08401
  20     537.5       45.8355        2.7832      123.3614      126.1446      80.309056       0.09078
  19     561.3       45.8185        2.8987      122.9509      125.8495      80.031078       0.09867
  18     585.0       45.8079        3.0151      122.5175      125.5326      79.724736       0.10874
  17     608.8       45.8035        3.1296      122.0752      125.2047      79.401257       0.11482
  16     632.6       45.8061        3.2421      121.6228      124.8649      79.058780       0.12157
  15     656.4       45.8175        3.3549      121.1473      124.5022      78.684705       0.13278
  14     680.1       45.8401        3.4655      120.6531      124.1186      78.278579       0.14416
  13     703.9       45.8757        3.5738      120.1376      123.7114      77.835686       0.15721
  12     727.7       45.9282        3.6814      119.5892      123.2705      77.342320       0.17512
  11     751.5       46.0014        3.7878      119.0038      122.7916      76.790143       0.19600
  10     775.2       46.0991        3.8916      118.3848      122.2764      76.177363       0.21751
   9     799.0       46.2263        3.9926      117.7284      121.7210      75.494729       0.24231
   8     822.8       35.3834       22.0954       88.0746      110.1700      74.786656       0.25134
   7     846.6       24.8634       33.1261       65.8882       99.0142      74.150883       0.22567
   6     870.4       14.5888       38.9004       49.2905       88.1909      73.602053       0.19481
   5     894.1        4.4843       40.7648       36.8659       77.6306      73.146374       0.16175
   4     917.9        4.4488       40.5456       36.6374       77.1830      72.734187       0.14631
   3     941.7        4.4150       40.3237       36.4060       76.7297      72.314722       0.14889
   2     965.5        4.3832       40.1004       36.1737       76.2741      71.890842       0.15046
   1     989.2        4.3538       39.8762       35.9407       75.8169      71.463112       0.15179
   0    1013.0        4.3268       39.6511       35.7072       75.3583      71.031517       0.15323



 Wavenumbers: 16000. - 22650. cm-1, ATM      1
 LEVEL PRESSURE   UPWARD FLUX   DIFDOWN FLUX  DIRDOWN FLUX  DOWNWARD FLUX   NET FLUX    HEATING RATE
          mb          W/m2          W/m2          W/m2        W/m2          W/m2       degree/day
  60   .000300       85.5891        0.0000      212.0812      212.0812     126.492040       0.00000
  59    0.1000       85.5881        0.0031      212.0760      212.0791     126.491011       0.08712
  58    0.1403       85.5878        0.0043      212.0737      212.0780     126.490187       0.17266
  57    0.1968       85.5875        0.0061      212.0701      212.0762     126.488695       0.22275
  56    0.2760       85.5872        0.0085      212.0648      212.0733     126.486073       0.27942
  55    0.3871       85.5871        0.0119      212.0569      212.0688     126.481652       0.33583
  54    0.5430       85.5873        0.0167      212.0449      212.0616     126.474239       0.40129
  53    0.7617       85.5885        0.0234      212.0263      212.0497     126.461158       0.50477
  52     1.069       85.5918        0.0329      211.9965      212.0294     126.437641       0.64686
  51     1.499       85.5993        0.0460      211.9488      211.9949     126.395543       0.82565
  50     2.102       85.6156        0.0643      211.8701      211.9344     126.318737       1.07384
  49     2.949       85.6497        0.0901      211.7353      211.8254     126.175782       1.42502
  48     4.137       85.7121        0.1264      211.5152      211.6416     125.929552       1.74972
  47     5.803       85.8099        0.1770      211.1861      211.3631     125.553174       1.90666
  46     8.139       85.9430        0.2477      210.7354      210.9831     125.040094       1.85302
  45     11.42       86.1064        0.3465      210.1559      210.5024     124.395920       1.65851
  44     16.01       86.2989        0.4844      209.4264      209.9107     123.611810       1.43924
  43     22.46       86.5187        0.6769      208.5155      209.1924     122.673739       1.22750
  42     31.51       86.7400        0.9459      207.4281      208.3741     121.634032       0.96990
  41     44.20       86.9107        1.3224      206.1997      207.5221     120.611356       0.68012
  40     62.00       87.0005        1.8449      204.7997      206.6447     119.644140       0.45857
  39     85.78       86.9348        2.5393      203.3150      205.8543     118.919501       0.25722
  38     109.5       86.7643        3.2407      202.0234      205.2641     118.499732       0.14900
  37     133.1       86.5730        3.9111      200.8408      204.7519     118.178931       0.11520
  36     156.8       86.3718        4.5589      199.7260      204.2849     117.913148       0.09425
  35     180.6       86.1381        5.2430      198.5859      203.8289     117.690804       0.07894
  34     202.8       85.8940        5.8976      197.5309      203.4285     117.534532       0.05933
  33     228.4       85.6351        6.5611      196.4789      203.0400     117.404870       0.04278
  32     252.2       85.3694        7.2220      195.4408      202.6628     117.293383       0.03957
  31     276.0       85.1007        7.8709      194.4310      202.3019     117.201187       0.03273
  30     299.8       84.8252        8.5209      193.4267      201.9475     117.122367       0.02798
  29     323.5       84.5468        9.1679      192.4286      201.5965     117.049712       0.02579
  28     347.3       84.2691        9.8051      191.4464      201.2516     116.982494       0.02386
  27     371.1       83.9932       10.4303      190.4836      200.9138     116.920615       0.02196
  26     394.9       83.7122       11.0601      189.5132      200.5733     116.861152       0.02111
  25     418.6       83.4309       11.6843      188.5503      200.2346     116.803683       0.02040
  24     442.4       83.1492       12.3040      187.5927      199.8966     116.747412       0.01997
  23     466.2       82.8662       12.9212      186.6371      199.5582     116.692065       0.01965
  22     489.9       82.5858       13.5275      185.6961      199.2237     116.637820       0.01925
  21     513.7       82.3037       14.1335      184.7529      198.8864     116.582739       0.01955
  20     537.5       82.0243       14.7300      183.8209      198.5509     116.526594       0.01993
  19     561.3       81.7474       15.3180      182.8981      198.2160     116.468665       0.02056
  18     585.0       81.4670       15.9103      181.9641      197.8744     116.407381       0.02175
  17     608.8       81.1900       16.4930      181.0409      197.5338     116.343867       0.02254
  16     632.6       80.9163       17.0663      180.1276      197.1939     116.277675       0.02350
  15     656.4       80.6406       17.6421      179.2047      196.8469     116.206281       0.02534
  14     680.1       80.3690       18.2089      178.2893      196.4983     116.129263       0.02734
  13     703.9       80.1019       18.7669      177.3803      196.1472     116.045351       0.02979
  12     727.7       79.8357       19.3244      176.4629      195.7873     115.951602       0.03328
  11     751.5       79.5715       19.8813      175.5353      195.4165     115.845032       0.03783
  10     775.2       79.3133       20.4306      174.6074      195.0381     115.724783       0.04268
   9     799.0       79.0618       20.9724      173.6783      194.6507     115.588837       0.04826
   8     822.8       62.0109       47.4660      129.9896      177.4556     115.444704       0.05116
   7     846.6       45.3891       63.4106       97.2901      160.7007     115.311587       0.04725
   6     870.4       29.0895       71.4666       72.8158      144.2824     115.192888       0.04213
   5     894.1       13.0301       73.6229       54.4982      128.1211     115.090980       0.03617
   4     917.9       12.7650       73.5624       54.1982      127.7607     114.995694       0.03382
   3     941.7       12.4996       73.4986       53.8977      127.3963     114.896636       0.03516
   2     965.5       12.2361       73.4318       53.5989      127.0308     114.794634       0.03621
   1     989.2       11.9745       73.3624       53.3021      126.6645     114.690019       0.03713
   0    1013.0       11.7146       73.2905       53.0071      126.2976     114.582987       0.03800



 Wavenumbers: 22650. - 29000. cm-1, ATM      1
 LEVEL PRESSURE   UPWARD FLUX   DIFDOWN FLUX  DIRDOWN FLUX  DOWNWARD FLUX   NET FLUX    HEATING RATE
          mb          W/m2          W/m2          W/m2        W/m2          W/m2       degree/day
  60   .000300       39.2435        0.0000       80.0317       80.0317      40.788202       0.00000
  59    0.1000       39.2422        0.0037       80.0267       80.0304      40.788202      -0.00000
  58    0.1403       39.2416        0.0051       80.0247       80.0298      40.788202       0.00000
  57    0.1968       39.2408        0.0072       80.0218       80.0290      40.788202       0.00000
  56    0.2760       39.2397        0.0101       80.0178       80.0280      40.788202      -0.00000
  55    0.3871       39.2382        0.0142       80.0122       80.0264      40.788202       0.00000
  54    0.5430       39.2361        0.0200       80.0043       80.0243      40.788202       0.00000
  53    0.7617       39.2331        0.0280       79.9933       80.0213      40.788202      -0.00000
  52     1.069       39.2289        0.0393       79.9778       80.0171      40.788202       0.00000
  51     1.499       39.2231        0.0551       79.9562       80.0113      40.788202       0.00000
  50     2.102       39.2150        0.0769       79.9263       80.0032      40.788202      -0.00000
  49     2.949       39.2035        0.1078       79.8839       79.9917      40.788202      -0.00000
  48     4.137       39.1874        0.1512       79.8244       79.9756      40.788202       0.00000
  47     5.803       39.1648        0.2118       79.7412       79.9530      40.788202       0.00000
  46     8.139       39.1333        0.2965       79.6249       79.9215      40.788202      -0.00000
  45     11.42       39.0890        0.4149       79.4623       79.8772      40.788202      -0.00000
  44     16.01       39.0271        0.5801       79.2352       79.8153      40.788202       0.00000
  43     22.46       38.9404        0.8106       78.9179       79.7286      40.788202       0.00000
  42     31.51       38.8187        1.1318       78.4751       79.6069      40.788202      -0.00000
  41     44.20       38.6480        1.5789       77.8573       79.4362      40.788202       0.00000
  40     62.00       38.4099        2.1943       77.0038       79.1981      40.788202      -0.00000
  39     85.78       38.0925        3.0014       75.8793       78.8807      40.788202      -0.00000
  38     109.5       37.7704        3.8046       74.7539       78.5586      40.788202       0.00000
  37     133.1       37.4607        4.5620       73.6869       78.2489      40.788202      -0.00000
  36     156.8       37.1597        5.2842       72.6637       77.9479      40.788202       0.00000
  35     180.6       36.8402        6.0362       71.5922       77.6284      40.788202       0.00000
  34     202.8       36.5328        6.7453       70.5757       77.3211      40.788202       0.00000
  33     228.4       36.2197        7.4538       69.5542       77.0079      40.788202      -0.00000
  32     252.2       35.9060        8.1493       68.5449       76.6942      40.788202      -0.00000
  31     276.0       35.5962        8.8225       67.5619       76.3844      40.788202       0.00000
  30     299.8       35.2842        9.4869       66.5855       76.0724      40.788202       0.00000
  29     323.5       34.9717       10.1387       65.6212       75.7599      40.788202      -0.00000
  28     347.3       34.6621       10.7712       64.6791       75.4504      40.788202       0.00000
  27     371.1       34.3566       11.3827       63.7621       75.1448      40.788202       0.00000
  26     394.9       34.0470       11.9897       62.8455       74.8352      40.788202       0.00000
  25     418.6       33.7381       12.5824       61.9439       74.5263      40.788202      -0.00000
  24     442.4       33.4296       13.1620       61.0558       74.2178      40.788202       0.00000
  23     466.2       33.1204       13.7306       60.1781       73.9086      40.788202      -0.00000
  22     489.9       32.8147       14.2806       59.3223       73.6029      40.788202      -0.00000
  21     513.7       32.5073       14.8220       58.4735       73.2955      40.788202       0.00000
  20     537.5       32.2026       15.3467       57.6441       72.9908      40.788202      -0.00000
  19     561.3       31.9003       15.8561       56.8325       72.6885      40.788202       0.00000
  18     585.0       31.5937       16.3612       56.0207       72.3819      40.788202      -0.00000
  17     608.8       31.2901       16.8504       55.2278       72.0783      40.788202       0.00000
  16     632.6       30.9892       17.3243       54.4531       71.7774      40.788202       0.00000
  15     656.4       30.6849       17.7927       53.6804       71.4731      40.788202      -0.00000
  14     680.1       30.3832       18.2465       52.9249       71.1714      40.788202       0.00000
  13     703.9       30.0840       18.6863       52.1859       70.8722      40.788202      -0.00000
  12     727.7       29.7827       19.1189       51.4520       70.5709      40.788202       0.00000
  11     751.5       29.4792       19.5443       50.7232       70.2675      40.788202       0.00000
  10     775.2       29.1774       19.9573       50.0082       69.9656      40.788202      -0.00000
   9     799.0       28.8770       20.3585       49.3067       69.6652      40.788202       0.00000
   8     822.8       22.7598       26.9665       36.5814       63.5480      40.788173       0.00001
   7     846.6       16.7682       30.4155       27.1408       57.5563      40.788147       0.00001
   6     870.4       10.8712       31.5223       20.1369       51.6593      40.788124       0.00001
   5     894.1        5.0447       30.8900       14.9427       45.8328      40.788106       0.00001
   4     917.9        4.7606       30.8162       14.7325       45.5487      40.788106      -0.00000
   3     941.7        4.4758       30.7391       14.5249       45.2639      40.788106       0.00000
   2     965.5        4.1925       30.6593       14.3213       44.9806      40.788106       0.00000
   1     989.2        3.9106       30.5769       14.1218       44.6987      40.788106      -0.00000
   0    1013.0        3.6301       30.4920       13.9262       44.4182      40.788106       0.00000



 Wavenumbers: 29000. - 38000. cm-1, ATM      1
 LEVEL PRESSURE   UPWARD FLUX   DIFDOWN FLUX  DIRDOWN FLUX  DOWNWARD FLUX   NET FLUX    HEATING RATE
          mb          W/m2          W/m2          W/m2        W/m2          W/m2       degree/day
  60   .000300        7.1550        0.0000       28.2225       28.2225      21.067487       0.00000
  59    0.1000        7.1532        0.0028       28.1859       28.1887      21.035455       2.71135
  58    0.1403        7.1526        0.0039       28.1585       28.1625      21.009885       5.35472
  57    0.1968        7.1517        0.0055       28.1101       28.1157      20.963933       6.86359
  56    0.2760        7.1507        0.0077       28.0271       28.0348      20.884174       8.49866
  55    0.3871        7.1493        0.0108       27.8913       27.9021      20.752829       9.97701
  54    0.5430        7.1476        0.0149       27.6738       27.6887      20.541112      11.46061
  53    0.7617        7.1457        0.0205       27.3185       27.3390      20.193291      13.42162
  52     1.069        7.1440        0.0279       26.7574       26.7852      19.641231      15.18550
  51     1.499        7.1432        0.0373       25.9466       25.9839      18.840723      15.69976
  50     2.102        7.1449        0.0492       24.8886       24.9377      17.792805      14.65132
  49     2.949        7.1524        0.0647       23.6539       23.7186      16.566152      12.22762
  48     4.137        7.1695        0.0851       22.3800       22.4650      15.295495       9.02936
  47     5.803        7.1986        0.1121       21.1533       21.2654      14.066721       6.22474
  46     8.139        7.2396        0.1485       20.0304       20.1789      12.939289       4.07180
  45     11.42        7.2910        0.1978       19.0179       19.2157      11.924731       2.61212
  44     16.01        7.3533        0.2644       18.0801       18.3444      10.991154       1.71360
  43     22.46        7.4283        0.3545       17.1858       17.5403      10.112079       1.15030
  42     31.51        7.5088        0.4773       16.3448       16.8221       9.313297       0.74515
  41     44.20        7.5757        0.6460       15.5663       16.2123       8.636606       0.45003
  40     62.00        7.6173        0.8752       14.8065       15.6817       8.064324       0.27133
  39     85.78        7.5987        1.1740       14.0925       15.2665       7.667773       0.14076
  38     109.5        7.5366        1.4692       13.5167       14.9859       7.449296       0.07755
  37     133.1        7.4677        1.7409       13.0134       14.7543       7.286610       0.05842
  36     156.8        7.3965        1.9936       12.5564       14.5500       7.153511       0.04720
  35     180.6        7.3137        2.2519       12.1053       14.3573       7.043542       0.03904
  34     202.8        7.2265        2.4918       11.7016       14.1934       6.966864       0.02911
  33     228.4        7.1341        2.7266       11.3112       14.0378       6.903661       0.02085
  32     252.2        7.0397        2.9521       10.9372       13.8894       6.849700       0.01915
  31     276.0        6.9443        3.1659       10.5839       13.7498       6.805507       0.01569
  30     299.8        6.8467        3.3725       10.2424       13.6149       6.768227       0.01323
  29     323.5        6.7484        3.5703        9.9126       13.4829       6.734494       0.01197
  28     347.3        6.6508        3.7576        9.5973       13.3548       6.704005       0.01082
  27     371.1        6.5541        3.9342        9.2967       13.2309       6.676754       0.00967
  26     394.9        6.4559        4.1052        9.0022       13.1074       6.651537       0.00895
  25     418.6        6.3578        4.2679        8.7182       12.9860       6.628203       0.00828
  24     442.4        6.2598        4.4227        8.4437       12.8664       6.606544       0.00769
  23     466.2        6.1615        4.5705        8.1775       12.7480       6.586505       0.00711
  22     489.9        6.0642        4.7095        7.9229       12.6324       6.568176       0.00651
  21     513.7        5.9663        4.8424        7.6749       12.5173       6.550965       0.00611
  20     537.5        5.8694        4.9674        7.4369       12.4043       6.534871       0.00571
  19     561.3        5.7733        5.0851        7.2080       12.2930       6.519772       0.00536
  18     585.0        5.6759        5.1980        6.9831       12.1811       6.505219       0.00517
  17     608.8        5.5795        5.3038        6.7672       12.0710       6.491470       0.00488
  16     632.6        5.4841        5.4027        6.5598       11.9625       6.478460       0.00462
  15     656.4        5.3877        5.4971        6.3565       11.8536       6.465883       0.00446
  14     680.1        5.2922        5.5850        6.1611       11.7462       6.453951       0.00424
  13     703.9        5.1976        5.6670        5.9732       11.6402       6.442615       0.00402
  12     727.7        5.1024        5.7444        5.7897       11.5341       6.431678       0.00388
  11     751.5        5.0067        5.8172        5.6105       11.4278       6.421131       0.00374
  10     775.2        4.9115        5.8848        5.4377       11.3225       6.411082       0.00357
   9     799.0        4.8168        5.9473        5.2710       11.2183       6.401500       0.00340
   8     822.8        3.8330        6.3825        3.8432       10.2256       6.392654       0.00314
   7     846.6        2.8644        6.4474        2.8022        9.2495       6.385054       0.00270
   6     870.4        1.9076        6.2423        2.0440        8.2863       6.378697       0.00226
   5     894.1        0.9593        5.8418        1.4911        7.3328       6.373529       0.00183
   4     917.9        0.8664        5.7903        1.4451        7.2355       6.369007       0.00161
   3     941.7        0.7734        5.7375        1.4005        7.1381       6.364673       0.00154
   2     965.5        0.6808        5.6838        1.3575        7.0413       6.360553       0.00146
   1     989.2        0.5887        5.6293        1.3160        6.9453       6.356636       0.00139
   0    1013.0        0.4971        5.5739        1.2761        6.8500       6.352912       0.00132



 Wavenumbers: 38000. - 50000. cm-1, ATM      1
 LEVEL PRESSURE   UPWARD FLUX   DIFDOWN FLUX  DIRDOWN FLUX  DOWNWARD FLUX   NET FLUX    HEATING RATE
          mb          W/m2          W/m2          W/m2        W/m2          W/m2       degree/day
  60   .000300        0.0069        0.0000        1.7407        1.7407       1.733864       0.00000
  59    0.1000        0.0063        0.0006        1.7198        1.7204       1.714069       1.67562
  58    0.1403        0.0061        0.0008        1.7047        1.7056       1.699408       3.07012
  57    0.1968        0.0059        0.0012        1.6784        1.6796       1.673683       3.84232
  56    0.2760        0.0056        0.0016        1.6341        1.6357       1.630132       4.64062
  55    0.3871        0.0051        0.0021        1.5634        1.5655       1.560405       5.29648
  54    0.5430        0.0046        0.0028        1.4543        1.4571       1.452495       5.84133
  53    0.7617        0.0039        0.0034        1.2861        1.2895       1.285598       6.44019
  52     1.069        0.0031        0.0037        1.0457        1.0495       1.046342       6.58121
  51     1.499        0.0024        0.0037        0.7523        0.7559       0.753565       5.74202
  50     2.102        0.0017        0.0031        0.4664        0.4695       0.467843       3.99478
  49     2.949        0.0012        0.0024        0.2581        0.2604       0.259286       2.07895
  48     4.137        0.0008        0.0017        0.1381        0.1398       0.139011       0.85468
  47     5.803        0.0005        0.0013        0.0728        0.0741       0.073572       0.33150
  46     8.139        0.0003        0.0009        0.0388        0.0397       0.039349       0.12360
  45     11.42        0.0002        0.0006        0.0198        0.0204       0.020194       0.04932
  44     16.01        0.0001        0.0004        0.0090        0.0093       0.009236       0.02011
  43     22.46        0.0000        0.0002        0.0034        0.0036       0.003591       0.00739
  42     31.51        0.0000        0.0001        0.0011        0.0012       0.001179       0.00225
  41     44.20        0.0000        0.0000        0.0003        0.0003       0.000327       0.00057
  40     62.00        0.0000        0.0000        0.0001        0.0001       0.000070       0.00012
  39     85.78        0.0000        0.0000        0.0000        0.0000       0.000012       0.00002
  38     109.5        0.0000        0.0000        0.0000        0.0000       0.000002       0.00000
  37     133.1        0.0000        0.0000        0.0000        0.0000       0.000000       0.00000
  36     156.8        0.0000        0.0000        0.0000        0.0000       0.000000       0.00000
  35     180.6        0.0000        0.0000        0.0000        0.0000       0.000000       0.00000
  34     202.8        0.0000        0.0000        0.0000        0.0000       0.000000       0.00000
  33     228.4        0.0000        0.0000        0.0000        0.0000       0.000000       0.00000
  32     252.2        0.0000        0.0000        0.0000        0.0000       0.000000       0.00000
  31     276.0        0.0000        0.0000        0.0000        0.0000       0.000000       0.00000
  30     299.8        0.0000        0.0000        0.0000        0.0000       0.000000       0.00000
  29     323.5        0.0000        0.0000        0.0000        0.0000       0.000000       0.00000
  28     347.3        0.0000        0.0000        0.0000        0.0000       0.000000       0.00000
  27     371.1        0.0000        0.0000        0.0000        0.0000       0.000000       0.00000
  26     394.9        0.0000        0.0000        0.0000        0.0000       0.000000       0.00000
  25     418.6        0.0000        0.0000        0.0000        0.0000       0.000000       0.00000
  24     442.4        0.0000        0.0000        0.0000        0.0000       0.000000       0.00000
  23     466.2        0.0000        0.0000        0.0000        0.0000       0.000000       0.00000
  22     489.9        0.0000        0.0000        0.0000        0.0000       0.000000       0.00000
  21     513.7        0.0000        0.0000        0.0000        0.0000       0.000000       0.00000
  20     537.5        0.0000        0.0000        0.0000        0.0000       0.000000       0.00000
  19     561.3        0.0000        0.0000        0.0000        0.0000       0.000000       0.00000
  18     585.0        0.0000        0.0000        0.0000        0.0000       0.000000       0.00000
  17     608.8        0.0000        0.0000        0.0000        0.0000       0.000000       0.00000
  16     632.6        0.0000        0.0000        0.0000        0.0000       0.000000       0.00000
  15     656.4        0.0000        0.0000        0.0000        0.0000       0.000000       0.00000
  14     680.1        0.0000        0.0000        0.0000        0.0000       0.000000       0.00000
  13     703.9        0.0000        0.0000        0.0000        0.0000       0.000000       0.00000
  12     727.7        0.0000        0.0000        0.0000        0.0000       0.000000       0.00000
  11     751.5        0.0000        0.0000        0.0000        0.0000       0.000000       0.00000
  10     775.2        0.0000        0.0000        0.0000        0.0000       0.000000       0.00000
   9     799.0        0.0000        0.0000        0.0000        0.0000       0.000000       0.00000
   8     822.8        0.0000        0.0000        0.0000        0.0000       0.000000       0.00000
   7     846.6        0.0000        0.0000        0.0000        0.0000       0.000000       0.00000
   6     870.4        0.0000        0.0000        0.0000        0.0000       0.000000       0.00000
   5     894.1        0.0000        0.0000        0.0000        0.0000       0.000000       0.00000
   4     917.9        0.0000        0.0000        0.0000        0.0000       0.000000       0.00000
   3     941.7        0.0000        0.0000        0.0000        0.0000       0.000000       0.00000
   2     965.5        0.0000        0.0000        0.0000        0.0000       0.000000       0.00000
   1     989.2        0.0000        0.0000        0.0000        0.0000       0.000000       0.00000
   0    1013.0        0.0000        0.0000        0.0000        0.0000       0.000000       0.00000



 Wavenumbers:   820. -  2600. cm-1, ATM      1
 LEVEL PRESSURE   UPWARD FLUX   DIFDOWN FLUX  DIRDOWN FLUX  DOWNWARD FLUX   NET FLUX    HEATING RATE
          mb          W/m2          W/m2          W/m2        W/m2          W/m2       degree/day
  60   .000300        0.7940        0.0000        8.1430        8.1430       7.348929       0.00000
  59    0.1000        0.7940        0.0000        8.1331        8.1331       7.339042       0.83687
  58    0.1403        0.7940        0.0000        8.1309        8.1309       7.336903       0.44787
  57    0.1968        0.7940        0.0000        8.1281        8.1281       7.334063       0.42422
  56    0.2760        0.7940        0.0000        8.1245        8.1245       7.330496       0.38012
  55    0.3871        0.7940        0.0000        8.1201        8.1201       7.326035       0.33887
  54    0.5430        0.7940        0.0000        8.1143        8.1143       7.320279       0.31159
  53    0.7617        0.7940        0.0000        8.1063        8.1063       7.312292       0.30817
  52     1.069        0.7940        0.0000        8.0951        8.0951       7.301043       0.30942
  51     1.499        0.7940        0.0000        8.0799        8.0799       7.285853       0.29792
  50     2.102        0.7941        0.0000        8.0595        8.0595       7.265441       0.28539
  49     2.949        0.7941        0.0000        8.0314        8.0314       7.237300       0.28052
  48     4.137        0.7941        0.0000        7.9935        7.9935       7.199450       0.26896
  47     5.803        0.7941        0.0000        7.9444        7.9444       7.150324       0.24886
  46     8.139        0.7941        0.0000        7.8811        7.8811       7.087040       0.22855
  45     11.42        0.7941        0.0000        7.8004        7.8004       7.006306       0.20786
  44     16.01        0.7941        0.0000        7.7070        7.7070       6.912937       0.17138
  43     22.46        0.7941        0.0000        7.6181        7.6181       6.823943       0.11645
  42     31.51        0.7942        0.0000        7.5468        7.5468       6.752636       0.06652
  41     44.20        0.7942        0.0000        7.4816        7.4816       6.687396       0.04339
  40     62.00        0.7943        0.0000        7.3998        7.3998       6.605505       0.03883
  39     85.78        0.7944        0.0000        7.2958        7.2958       6.501365       0.03697
  38     109.5        0.7946        0.0000        7.1946        7.1946       6.400068       0.03596
  37     133.1        0.7947        0.0000        7.1003        7.1003       6.305580       0.03393
  36     156.8        0.7948        0.0000        7.0126        7.0126       6.217815       0.03112
  35     180.6        0.7950        0.0000        6.9166        6.9166       6.121617       0.03415
  34     202.8        0.7952        0.0000        6.8041        6.8042       6.009003       0.04276
  33     228.4        0.7954        0.0000        6.6630        6.6630       5.867619       0.04665
  32     252.2        0.7957        0.0000        6.4917        6.4917       5.695974       0.06093
  31     276.0        0.7961        0.0000        6.3090        6.3091       5.512979       0.06496
  30     299.8        0.7967        0.0000        6.1153        6.1153       5.318661       0.06897
  29     323.5        0.7974        0.0000        5.9197        5.9197       5.122306       0.06970
  28     347.3        0.7984        0.0000        5.7036        5.7036       4.905178       0.07707
  27     371.1        0.7996        0.0000        5.4648        5.4649       4.665221       0.08517
  26     394.9        0.8011        0.0000        5.2059        5.2060       4.404849       0.09242
  25     418.6        0.8029        0.0000        4.9521        4.9521       4.149212       0.09074
  24     442.4        0.8049        0.0000        4.7233        4.7233       3.918412       0.08192
  23     466.2        0.8072        0.0000        4.5370        4.5370       3.729800       0.06695
  22     489.9        0.8099        0.0000        4.3924        4.3925       3.582625       0.05224
  21     513.7        0.8130        0.0000        4.2764        4.2764       3.463419       0.04231
  20     537.5        0.8167        0.0000        4.1775        4.1776       3.360834       0.03641
  19     561.3        0.8211        0.0000        4.0839        4.0840       3.262878       0.03477
  18     585.0        0.8263        0.0000        3.9882        3.9883       3.162013       0.03580
  17     608.8        0.8322        0.0000        3.8907        3.8907       3.058518       0.03674
  16     632.6        0.8391        0.0000        3.7911        3.7912       2.952036       0.03780
  15     656.4        0.8474        0.0000        3.6867        3.6868       2.839334       0.04000
  14     680.1        0.8574        0.0000        3.5795        3.5795       2.722115       0.04161
  13     703.9        0.8694        0.0000        3.4709        3.4710       2.601562       0.04279
  12     727.7        0.8844        0.0000        3.3598        3.3599       2.475452       0.04476
  11     751.5        0.9040        0.0000        3.2443        3.2443       2.340389       0.04794
  10     775.2        0.9294        0.0000        3.1256        3.1256       2.196244       0.05117
   9     799.0        0.9630        0.0000        3.0033        3.0033       2.040323       0.05535
   8     822.8        0.7140        0.4318        2.1659        2.5977       1.883751       0.05558
   7     846.6        0.4824        0.6706        1.5622        2.2328       1.750388       0.04734
   6     870.4        0.2628        0.7754        1.1267        1.9021       1.639238       0.03945
   5     894.1        0.0509        0.7884        0.8118        1.6002       1.549293       0.03193
   4     917.9        0.0529        0.7471        0.7756        1.5227       1.469768       0.02823
   3     941.7        0.0554        0.7059        0.7392        1.4451       1.389755       0.02840
   2     965.5        0.0582        0.6650        0.7026        1.3677       1.309476       0.02850
   1     989.2        0.0616        0.6247        0.6660        1.2907       1.229137       0.02851
   0    1013.0        0.0656        0.5851        0.6296        1.2147       1.149014       0.02845

  Modules and versions used in this calculation:

       rrtmg_sw.1col.f90:  $Revision$                    rrtmg_sw_init.f90:  $Revision$        
     rrtmgsw_cldprop.f90:  $Revision$                  rrtmgsw_cldprmc.f90:  NOT USED          
     rrtmg_sw_reftra.f90:  $Revision$                  rrtmg_sw_spcvrt.f90:  NOT USED          
     rrtmg_sw_spcvmc.f90:  NOT USED                    rrtmgsw_setcoef.f90:  NOT USED          
     rrtmg_sw_taumol.f90:  $Revision$                  rrtmg_sw_vrtqdr.f90:  NOT USED          
                rrtatm.f:  NOT USED                             util_xxx.f:  NOT USED          
                 extra.f:  NOT USED                       rrtmg_sw_k_g.f90:  $Revision$        

