

 Wavenumbers:   820. - 50000. cm-1, ATM      1
 LEVEL PRESSURE   UPWARD FLUX   DIFDOWN FLUX  DIRDOWN FLUX  DOWNWARD FLUX   NET FLUX    HEATING RATE
          mb          W/m2          W/m2          W/m2        W/m2          W/m2       degree/day
  60   .000300      315.0448        0.0000      837.8224      837.8224     522.777635       0.00000
  59    0.1000      315.0401        0.0113      837.7137      837.7250     522.684856       7.85332
  58    0.1403      315.0386        0.0159      837.6563      837.6722     522.633641      10.72483
  57    0.1968      315.0366        0.0223      837.5614      837.5836     522.547082      12.92898
  56    0.2760      315.0342        0.0311      837.4070      837.4382     522.403973      15.24897
  55    0.3871      315.0314        0.0435      837.1641      837.2076     522.176202      17.30141
  54    0.5430      315.0283        0.0606      836.7876      836.8482     521.819875      19.28861
  53    0.7617      315.0260        0.0840      836.1942      836.2782     521.252138      21.90772
  52     1.069      315.0263        0.1161      835.2926      835.4087     520.382421      23.92332
  51     1.499      315.0331        0.1593      834.0471      834.2064     519.173302      23.71352
  50     2.102      315.0548        0.2175      832.4995      832.7171     517.662221      21.12695
  49     2.949      315.1076        0.2989      830.7483      831.0472     515.939526      17.17231
  48     4.137      315.2110        0.4119      828.8944      829.3063     514.095272      13.10537
  47     5.803      315.3771        0.5687      826.9459      827.5147     512.137583       9.91729
  46     8.139      315.6041        0.7869      824.8978      825.6847     510.080608       7.42890
  45     11.42      315.8813        1.0904      822.7006      823.7910     507.909713       5.58927
  44     16.01      316.2044        1.5120      820.2525      821.7644     505.560010       4.31291
  43     22.46      316.5692        2.0982      817.4463      819.5445     502.975377       3.38209
  42     31.51      316.9241        2.9136      814.2518      817.1654     500.241265       2.55055
  41     44.20      317.1631        4.0498      810.6480      814.6978     497.534642       1.80001
  40     62.00      317.2193        5.6179      806.4553      812.0732     494.853931       1.27096
  39     85.78      316.9370        7.6868      801.7674      809.4542     492.517181       0.82945
  38     109.5      316.4606        9.7606      797.4817      807.2423     490.781725       0.61602
  37     133.1      315.9504       11.7236      793.5510      805.2745     489.324149       0.52343
  36     156.8      315.4269       13.6026      789.8548      803.4574     488.030495       0.45873
  35     180.6      314.8328       15.5693      786.0084      801.5777     486.744903       0.45641
  34     202.8      314.2241       17.4350      782.2124      799.6474     485.423291       0.50179
  33     228.4      313.5862       19.3087      778.0467      797.3554     483.769232       0.54574
  32     252.2      312.9379       21.1580      773.4741      794.6321     481.694179       0.73656
  31     276.0      312.2895       22.9576      768.4389      791.3965     479.106973       0.91835
  30     299.8      311.6328       24.7435      762.7642      787.5077     475.874855       1.14727
  29     323.5      310.9784       26.5050      756.6288      783.1338     472.155327       1.32028
  28     347.3      310.3366       28.2237      750.2254      778.4491     468.112475       1.43505
  27     371.1      309.7107       29.8946      743.7251      773.6197     463.908923       1.49209
  26     394.9      309.0871       31.5626      736.8957      768.4584     459.371226       1.61070
  25     418.6      308.4797       33.2006      729.8721      763.0727     454.593032       1.69606
  24     442.4      307.8912       34.8117      722.6783      757.4899     449.598760       1.77276
  23     466.2      307.3214       36.4016      715.4381      751.8396     444.518282       1.80336
  22     489.9      306.7825       37.9492      708.2772      746.2263     439.443807       1.80123
  21     513.7      306.2716       39.4816      701.0441      740.5257     434.254086       1.84214
  20     537.5      305.8035       40.9759      693.8325      734.8084     429.004909       1.86324
  19     561.3      305.3844       42.4354      686.6319      729.0673     423.682928       1.88908
  18     585.0      305.0098       43.8920      679.3701      723.2621     418.252299       1.92765
  17     608.8      304.6941       45.3117      672.2525      717.5642     412.870099       1.91046
  16     632.6      304.4457       46.6957      665.2624      711.9581     407.512411       1.90176
  15     656.4      304.2784       48.0727      658.1915      706.2642     401.985781       1.96173
  14     680.1      304.2219       49.4150      651.1209      700.5360     396.314012       2.01324
  13     703.9      304.2998       50.7236      644.0582      694.7817     390.481976       2.07013
  12     727.7      304.5511       52.0182      636.8758      688.8940     384.342873       2.17913
  11     751.5      305.0460       53.2979      629.4911      682.7890     377.742995       2.34268
  10     775.2      305.8598       54.5470      621.9804      676.5274     370.667583       2.51148
   9     799.0      307.1076       55.7656      614.3441      670.1097     363.002109       2.72093
   8     822.8      233.2984      184.5885      404.1378      588.7263     355.427944       2.68852
   7     846.6      162.9234      246.1747      265.9504      512.1251     349.201709       2.21006
   6     870.4       94.8192      264.0253      175.0773      439.1026     344.283388       1.74580
   5     894.1       28.1416      253.4717      115.2879      368.7596     340.618051       1.30104
   4     917.9       27.5856      251.2304      113.9635      365.1939     337.608305       1.06834
   3     941.7       27.0391      249.0477      112.6647      361.7124     334.673313       1.04180
   2     965.5       26.5085      246.9296      111.3984      358.3281     331.819592       1.01295
   1     989.2       25.9962      244.8702      110.1637      355.0340     329.037728       0.98724
   0    1013.0       25.5061      242.8638      108.9580      351.8218     326.315708       0.96641



 Wavenumbers:  2600. -  3250. cm-1, ATM      1
 LEVEL PRESSURE   UPWARD FLUX   DIFDOWN FLUX  DIRDOWN FLUX  DOWNWARD FLUX   NET FLUX    HEATING RATE
          mb          W/m2          W/m2          W/m2        W/m2          W/m2       degree/day
  60   .000300        1.3272        0.0000        7.3841        7.3841       6.056824       0.00000
  59    0.1000        1.3272        0.0000        7.3840        7.3840       6.056752       0.00613
  58    0.1403        1.3272        0.0000        7.3840        7.3840       6.056723       0.00614
  57    0.1968        1.3272        0.0000        7.3839        7.3839       6.056681       0.00616
  56    0.2760        1.3272        0.0000        7.3839        7.3839       6.056624       0.00613
  55    0.3871        1.3272        0.0000        7.3838        7.3838       6.056539       0.00642
  54    0.5430        1.3272        0.0000        7.3837        7.3837       6.056414       0.00678
  53    0.7617        1.3272        0.0000        7.3835        7.3835       6.056217       0.00761
  52     1.069        1.3272        0.0000        7.3831        7.3831       6.055887       0.00908
  51     1.499        1.3272        0.0000        7.3825        7.3825       6.055278       0.01193
  50     2.102        1.3272        0.0000        7.3814        7.3814       6.054189       0.01522
  49     2.949        1.3272        0.0000        7.3795        7.3795       6.052304       0.01880
  48     4.137        1.3272        0.0000        7.3765        7.3765       6.049290       0.02142
  47     5.803        1.3272        0.0000        7.3721        7.3721       6.044859       0.02245
  46     8.139        1.3272        0.0000        7.3661        7.3661       6.038851       0.02170
  45     11.42        1.3272        0.0000        7.3586        7.3586       6.031344       0.01933
  44     16.01        1.3272        0.0000        7.3500        7.3500       6.022766       0.01574
  43     22.46        1.3273        0.0000        7.3407        7.3407       6.013448       0.01219
  42     31.51        1.3273        0.0000        7.3297        7.3297       6.002476       0.01023
  41     44.20        1.3273        0.0000        7.3134        7.3134       5.986112       0.01088
  40     62.00        1.3273        0.0000        7.2860        7.2860       5.958676       0.01301
  39     85.78        1.3275        0.0000        7.2438        7.2439       5.916429       0.01500
  38     109.5        1.3276        0.0000        7.1969        7.1970       5.869357       0.01671
  37     133.1        1.3278        0.0001        7.1517        7.1518       5.824033       0.01628
  36     156.8        1.3280        0.0001        7.1092        7.1093       5.781337       0.01514
  35     180.6        1.3282        0.0001        7.0662        7.0663       5.738065       0.01536
  34     202.8        1.3285        0.0001        7.0262        7.0262       5.697728       0.01532
  33     228.4        1.3290        0.0001        6.9846        6.9847       5.655759       0.01385
  32     252.2        1.3296        0.0001        6.9407        6.9408       5.611179       0.01582
  31     276.0        1.3304        0.0001        6.8941        6.8942       5.563807       0.01682
  30     299.8        1.3315        0.0001        6.8424        6.8426       5.511035       0.01873
  29     323.5        1.3329        0.0001        6.7849        6.7851       5.452109       0.02092
  28     347.3        1.3347        0.0001        6.7206        6.7208       5.386018       0.02346
  27     371.1        1.3369        0.0001        6.6496        6.6497       5.312824       0.02598
  26     394.9        1.3396        0.0002        6.5676        6.5677       5.228165       0.03005
  25     418.6        1.3428        0.0002        6.4741        6.4743       5.131492       0.03432
  24     442.4        1.3467        0.0002        6.3671        6.3673       5.020634       0.03935
  23     466.2        1.3512        0.0002        6.2486        6.2487       4.897475       0.04372
  22     489.9        1.3566        0.0002        6.1205        6.1206       4.764055       0.04736
  21     513.7        1.3630        0.0002        5.9812        5.9814       4.618382       0.05171
  20     537.5        1.3706        0.0002        5.8338        5.8340       4.463460       0.05499
  19     561.3        1.3794        0.0002        5.6819        5.6821       4.302639       0.05708
  18     585.0        1.3899        0.0002        5.5274        5.5276       4.137766       0.05852
  17     608.8        1.4018        0.0002        5.3761        5.3763       3.974464       0.05797
  16     632.6        1.4155        0.0002        5.2281        5.2283       3.812793       0.05739
  15     656.4        1.4318        0.0002        5.0791        5.0793       3.647506       0.05867
  14     680.1        1.4511        0.0002        4.9299        4.9301       3.478984       0.05982
  13     703.9        1.4741        0.0002        4.7798        4.7800       3.305844       0.06146
  12     727.7        1.5024        0.0002        4.6253        4.6255       3.123075       0.06488
  11     751.5        1.5380        0.0002        4.4633        4.4635       2.925445       0.07015
  10     775.2        1.5831        0.0002        4.2949        4.2951       2.711924       0.07579
   9     799.0        1.6413        0.0002        4.1205        4.1207       2.479424       0.08253
   8     822.8        1.2072        0.8295        2.6270        3.4565       2.249352       0.08167
   7     846.6        0.8141        1.2004        1.6749        2.8754       2.061252       0.06677
   6     870.4        0.4478        1.2933        1.0686        2.3620       1.914186       0.05220
   5     894.1        0.0978        1.2214        0.6825        1.9039       1.806075       0.03838
   4     917.9        0.1005        1.1652        0.6543        1.8194       1.718912       0.03094
   3     941.7        0.1036        1.1121        0.6272        1.7393       1.635687       0.02954
   2     965.5        0.1073        1.0619        0.6014        1.6634       1.556122       0.02824
   1     989.2        0.1115        1.0144        0.5769        1.5913       1.479841       0.02707
   0    1013.0        0.1165        0.9692        0.5534        1.5227       1.406146       0.02616



 Wavenumbers:  3250. -  4000. cm-1, ATM      1
 LEVEL PRESSURE   UPWARD FLUX   DIFDOWN FLUX  DIRDOWN FLUX  DOWNWARD FLUX   NET FLUX    HEATING RATE
          mb          W/m2          W/m2          W/m2        W/m2          W/m2       degree/day
  60   .000300        0.0148        0.0000       12.4485       12.4485      12.433623       0.00000
  59    0.1000        0.0148        0.0000       12.4290       12.4290      12.414121       1.65079
  58    0.1403        0.0148        0.0000       12.4252       12.4252      12.410406       0.77776
  57    0.1968        0.0148        0.0000       12.4208       12.4208      12.405934       0.66803
  56    0.2760        0.0148        0.0000       12.4156       12.4156      12.400771       0.55013
  55    0.3871        0.0148        0.0000       12.4096       12.4096      12.394738       0.45825
  54    0.5430        0.0148        0.0000       12.4022       12.4022      12.387410       0.39669
  53    0.7617        0.0148        0.0000       12.3928       12.3928      12.377950       0.36506
  52     1.069        0.0148        0.0000       12.3807       12.3807      12.365909       0.33119
  51     1.499        0.0148        0.0000       12.3664       12.3664      12.351552       0.28159
  50     2.102        0.0148        0.0000       12.3498       12.3498      12.334918       0.23256
  49     2.949        0.0148        0.0000       12.3302       12.3302      12.315383       0.19473
  48     4.137        0.0148        0.0000       12.3067       12.3068      12.291918       0.16675
  47     5.803        0.0148        0.0000       12.2766       12.2766      12.261800       0.15257
  46     8.139        0.0148        0.0000       12.2347       12.2348      12.219932       0.15121
  45     11.42        0.0148        0.0000       12.1733       12.1733      12.158519       0.15812
  44     16.01        0.0148        0.0000       12.0830       12.0830      12.068208       0.16577
  43     22.46        0.0148        0.0000       11.9527       11.9527      11.937918       0.17049
  42     31.51        0.0148        0.0000       11.7748       11.7748      11.760033       0.16594
  41     44.20        0.0148        0.0001       11.5551       11.5552      11.540396       0.14607
  40     62.00        0.0148        0.0001       11.3050       11.3051      11.290328       0.11856
  39     85.78        0.0147        0.0001       11.0142       11.0143      10.999540       0.10322
  38     109.5        0.0147        0.0001       10.7175       10.7176      10.702920       0.10529
  37     133.1        0.0147        0.0002       10.4459       10.4460      10.431373       0.09752
  36     156.8        0.0146        0.0002       10.1944       10.1946      10.179985       0.08914
  35     180.6        0.0146        0.0002        9.9218        9.9220       9.907426       0.09676
  34     202.8        0.0146        0.0002        9.5970        9.5973       9.582655       0.12331
  33     228.4        0.0146        0.0002        9.1820        9.1823       9.167716       0.13690
  32     252.2        0.0146        0.0003        8.7004        8.7006       8.686069       0.17096
  31     276.0        0.0146        0.0003        8.1693        8.1695       8.154985       0.18851
  30     299.8        0.0146        0.0003        7.5886        7.5889       7.574315       0.20611
  29     323.5        0.0146        0.0003        6.9823        6.9825       6.967953       0.21523
  28     347.3        0.0146        0.0003        6.3629        6.3631       6.348490       0.21988
  27     371.1        0.0147        0.0002        5.7699        5.7701       5.755443       0.21051
  26     394.9        0.0148        0.0002        5.2041        5.2043       5.189500       0.20089
  25     418.6        0.0149        0.0002        4.6962        4.6964       4.681440       0.18034
  24     442.4        0.0151        0.0002        4.2409        4.2411       4.225965       0.16168
  23     466.2        0.0154        0.0002        3.8328        3.8330       3.817535       0.14498
  22     489.9        0.0158        0.0002        3.4648        3.4650       3.449252       0.13073
  21     513.7        0.0163        0.0002        3.1218        3.1220       3.105728       0.12194
  20     537.5        0.0169        0.0002        2.8040        2.8042       2.787296       0.11303
  19     561.3        0.0177        0.0002        2.5083        2.5084       2.490735       0.10527
  18     585.0        0.0187        0.0001        2.2301        2.2302       2.211493       0.09912
  17     608.8        0.0201        0.0001        1.9731        1.9732       1.953143       0.09170
  16     632.6        0.0218        0.0001        1.7337        1.7338       1.712084       0.08557
  15     656.4        0.0240        0.0001        1.5041        1.5042       1.480187       0.08231
  14     680.1        0.0271        0.0001        1.2888        1.2888       1.261752       0.07754
  13     703.9        0.0313        0.0001        1.0908        1.0909       1.059568       0.07177
  12     727.7        0.0373        0.0001        0.9082        0.9083       0.870999       0.06693
  11     751.5        0.0462        0.0001        0.7390        0.7391       0.692873       0.06323
  10     775.2        0.0600        0.0000        0.5856        0.5857       0.525675       0.05935
   9     799.0        0.0823        0.0000        0.4484        0.4484       0.366133       0.05663
   8     822.8        0.0461        0.0568        0.2193        0.2761       0.230029       0.04831
   7     846.6        0.0240        0.0586        0.1044        0.1630       0.139023       0.03230
   6     870.4        0.0101        0.0437        0.0483        0.0920       0.081960       0.02026
   5     894.1        0.0000        0.0275        0.0216        0.0492       0.049144       0.01165
   4     917.9        0.0000        0.0161        0.0140        0.0300       0.030030       0.00678
   3     941.7        0.0000        0.0089        0.0086        0.0175       0.017461       0.00446
   2     965.5        0.0000        0.0046        0.0051        0.0097       0.009650       0.00277
   1     989.2        0.0001        0.0023        0.0028        0.0051       0.005019       0.00164
   0    1013.0        0.0002        0.0010        0.0015        0.0026       0.002351       0.00095



 Wavenumbers:  4000. -  4650. cm-1, ATM      1
 LEVEL PRESSURE   UPWARD FLUX   DIFDOWN FLUX  DIRDOWN FLUX  DOWNWARD FLUX   NET FLUX    HEATING RATE
          mb          W/m2          W/m2          W/m2        W/m2          W/m2       degree/day
  60   .000300        4.4378        0.0000       14.6183       14.6183      10.180418       0.00000
  59    0.1000        4.4378        0.0000       14.6182       14.6182      10.180409       0.00076
  58    0.1403        4.4378        0.0000       14.6182       14.6182      10.180405       0.00077
  57    0.1968        4.4378        0.0000       14.6182       14.6182      10.180400       0.00077
  56    0.2760        4.4378        0.0000       14.6182       14.6182      10.180393       0.00076
  55    0.3871        4.4378        0.0000       14.6182       14.6182      10.180382       0.00080
  54    0.5430        4.4378        0.0000       14.6182       14.6182      10.180367       0.00085
  53    0.7617        4.4378        0.0000       14.6182       14.6182      10.180342       0.00095
  52     1.069        4.4378        0.0000       14.6181       14.6181      10.180300       0.00114
  51     1.499        4.4378        0.0000       14.6180       14.6181      10.180223       0.00152
  50     2.102        4.4378        0.0000       14.6179       14.6179      10.180082       0.00197
  49     2.949        4.4378        0.0000       14.6176       14.6177      10.179829       0.00252
  48     4.137        4.4378        0.0000       14.6172       14.6172      10.179400       0.00305
  47     5.803        4.4378        0.0000       14.6165       14.6165      10.178707       0.00351
  46     8.139        4.4378        0.0000       14.6154       14.6154      10.177624       0.00391
  45     11.42        4.4378        0.0001       14.6137       14.6138      10.175953       0.00430
  44     16.01        4.4378        0.0001       14.6112       14.6112      10.173419       0.00465
  43     22.46        4.4378        0.0001       14.6074       14.6075      10.169637       0.00495
  42     31.51        4.4378        0.0001       14.6017       14.6018      10.163976       0.00528
  41     44.20        4.4379        0.0002       14.5927       14.5929      10.155026       0.00595
  40     62.00        4.4380        0.0003       14.5788       14.5791      10.141109       0.00660
  39     85.78        4.4382        0.0004       14.5592       14.5596      10.121425       0.00699
  38     109.5        4.4386        0.0005       14.5382       14.5387      10.100091       0.00757
  37     133.1        4.4390        0.0006       14.5177       14.5183      10.079306       0.00746
  36     156.8        4.4395        0.0007       14.4977       14.4984      10.058847       0.00725
  35     180.6        4.4402        0.0008       14.4759       14.4767      10.036521       0.00793
  34     202.8        4.4410        0.0009       14.4536       14.4545      10.013540       0.00873
  33     228.4        4.4421        0.0010       14.4280       14.4291       9.986992       0.00876
  32     252.2        4.4435        0.0011       14.3983       14.3994       9.955988       0.01101
  31     276.0        4.4452        0.0012       14.3635       14.3648       9.919547       0.01293
  30     299.8        4.4475        0.0013       14.3217       14.3230       9.875502       0.01563
  29     323.5        4.4504        0.0014       14.2720       14.2735       9.823072       0.01861
  28     347.3        4.4539        0.0015       14.2129       14.2144       9.760482       0.02222
  27     371.1        4.4579        0.0016       14.1438       14.1454       9.687439       0.02593
  26     394.9        4.4625        0.0017       14.0605       14.0622       9.599693       0.03115
  25     418.6        4.4676        0.0018       13.9639       13.9658       9.498157       0.03604
  24     442.4        4.4734        0.0019       13.8548       13.8567       9.383304       0.04077
  23     466.2        4.4799        0.0020       13.7365       13.7385       9.258622       0.04426
  22     489.9        4.4872        0.0021       13.6136       13.6157       9.128503       0.04619
  21     513.7        4.4957        0.0022       13.4859       13.4881       8.992426       0.04830
  20     537.5        4.5054        0.0022       13.3568       13.3590       8.853586       0.04928
  19     561.3        4.5167        0.0023       13.2261       13.2284       8.711721       0.05036
  18     585.0        4.5299        0.0024       13.0915       13.0939       8.563970       0.05245
  17     608.8        4.5451        0.0025       12.9542       12.9567       8.411593       0.05409
  16     632.6        4.5625        0.0025       12.8109       12.8135       8.251015       0.05700
  15     656.4        4.5832        0.0026       12.6541       12.6567       8.073539       0.06300
  14     680.1        4.6078        0.0027       12.4832       12.4859       7.878110       0.06937
  13     703.9        4.6373        0.0027       12.2977       12.3004       7.663111       0.07632
  12     727.7        4.6738        0.0028       12.0950       12.0978       7.423992       0.08488
  11     751.5        4.7202        0.0028       11.8732       11.8760       7.155877       0.09517
  10     775.2        4.7798        0.0029       11.6374       11.6403       6.860480       0.10485
   9     799.0        4.8582        0.0029       11.3910       11.3939       6.535716       0.11528
   8     822.8        3.6020        2.3943        7.4221        9.8163       6.214309       0.11409
   7     846.6        2.4273        3.5412        4.8401        8.3813       5.954022       0.09239
   6     870.4        1.3058        3.8979        3.1595        7.0574       5.751640       0.07184
   5     894.1        0.2168        3.7559        2.0639        5.8198       5.603029       0.05275
   4     917.9        0.2193        3.6771        2.0246        5.7017       5.482398       0.04282
   3     941.7        0.2222        3.6009        1.9864        5.5873       5.365101       0.04164
   2     965.5        0.2255        3.5268        1.9491        5.4759       5.250353       0.04073
   1     989.2        0.2294        3.4542        1.9126        5.3668       5.137404       0.04008
   0    1013.0        0.2340        3.3829        1.8766        5.2595       5.025458       0.03974



 Wavenumbers:  4650. -  5150. cm-1, ATM      1
 LEVEL PRESSURE   UPWARD FLUX   DIFDOWN FLUX  DIRDOWN FLUX  DOWNWARD FLUX   NET FLUX    HEATING RATE
          mb          W/m2          W/m2          W/m2        W/m2          W/m2       degree/day
  60   .000300        3.2619        0.0000       13.8369       13.8369      10.574999       0.00000
  59    0.1000        3.2619        0.0000       13.8347       13.8347      10.572881       0.17928
  58    0.1403        3.2619        0.0000       13.8339       13.8339      10.572043       0.17564
  57    0.1968        3.2619        0.0000       13.8327       13.8327      10.570877       0.17409
  56    0.2760        3.2619        0.0000       13.8312       13.8312      10.569288       0.16936
  55    0.3871        3.2619        0.0000       13.8290       13.8290      10.567108       0.16558
  54    0.5430        3.2619        0.0000       13.8260       13.8260      10.564172       0.15891
  53    0.7617        3.2619        0.0000       13.8221       13.8221      10.560268       0.15065
  52     1.069        3.2619        0.0000       13.8170       13.8170      10.555115       0.14175
  51     1.499        3.2619        0.0000       13.8105       13.8105      10.548631       0.12717
  50     2.102        3.2619        0.0000       13.8026       13.8026      10.540760       0.11005
  49     2.949        3.2619        0.0000       13.7933       13.7933      10.531461       0.09269
  48     4.137        3.2619        0.0000       13.7830       13.7831      10.521216       0.07280
  47     5.803        3.2619        0.0000       13.7724       13.7724      10.510566       0.05395
  46     8.139        3.2619        0.0001       13.7615       13.7616      10.499733       0.03912
  45     11.42        3.2619        0.0001       13.7497       13.7498      10.487953       0.03033
  44     16.01        3.2619        0.0001       13.7347       13.7348      10.472905       0.02762
  43     22.46        3.2619        0.0001       13.7122       13.7123      10.450378       0.02948
  42     31.51        3.2620        0.0002       13.6758       13.6760      10.414001       0.03393
  41     44.20        3.2622        0.0003       13.6167       13.6170      10.354775       0.03939
  40     62.00        3.2626        0.0004       13.5244       13.5248      10.262176       0.04390
  39     85.78        3.2634        0.0006       13.3944       13.3950      10.131639       0.04634
  38     109.5        3.2643        0.0007       13.2650       13.2657      10.001456       0.04621
  37     133.1        3.2654        0.0009       13.1487       13.1496       9.884184       0.04211
  36     156.8        3.2667        0.0010       13.0449       13.0459       9.779117       0.03726
  35     180.6        3.2684        0.0011       12.9437       12.9448       9.676401       0.03647
  34     202.8        3.2703        0.0013       12.8534       12.8547       9.584409       0.03493
  33     228.4        3.2726        0.0014       12.7658       12.7672       9.494649       0.02962
  32     252.2        3.2752        0.0016       12.6801       12.6817       9.406468       0.03130
  31     276.0        3.2784        0.0017       12.5950       12.5967       9.318328       0.03129
  30     299.8        3.2823        0.0018       12.5053       12.5071       9.224822       0.03319
  29     323.5        3.2871        0.0020       12.4093       12.4112       9.124163       0.03573
  28     347.3        3.2926        0.0021       12.3075       12.3096       9.016957       0.03805
  27     371.1        3.2990        0.0022       12.1993       12.2015       8.902523       0.04062
  26     394.9        3.3065        0.0023       12.0815       12.0839       8.777412       0.04441
  25     418.6        3.3150        0.0025       11.9549       11.9573       8.642289       0.04796
  24     442.4        3.3248        0.0026       11.8185       11.8211       8.496292       0.05182
  23     466.2        3.3359        0.0027       11.6730       11.6757       8.339751       0.05557
  22     489.9        3.3484        0.0028       11.5203       11.5231       8.174652       0.05860
  21     513.7        3.3626        0.0029       11.3577       11.3605       7.997910       0.06274
  20     537.5        3.3786        0.0030       11.1878       11.1908       7.812151       0.06594
  19     561.3        3.3968        0.0031       11.0105       11.0135       7.616763       0.06935
  18     585.0        3.4175        0.0031       10.8249       10.8280       7.410525       0.07321
  17     608.8        3.4406        0.0032       10.6366       10.6398       7.199216       0.07501
  16     632.6        3.4665        0.0033       10.4463       10.4496       6.983136       0.07670
  15     656.4        3.4964        0.0034       10.2497       10.2530       6.756626       0.08040
  14     680.1        3.5305        0.0034       10.0509       10.0544       6.523877       0.08262
  13     703.9        3.5694        0.0035        9.8514        9.8549       6.285497       0.08462
  12     727.7        3.6149        0.0035        9.6483        9.6518       6.036983       0.08821
  11     751.5        3.6692        0.0036        9.4402        9.4438       5.774583       0.09314
  10     775.2        3.7342        0.0036        9.2294        9.2330       5.498835       0.09788
   9     799.0        3.8129        0.0037        9.0169        9.0205       5.207615       0.10337
   8     822.8        2.8261        1.8887        5.8679        7.7566       4.930467       0.09838
   7     846.6        1.9050        2.7877        3.8212        6.6089       4.703882       0.08043
   6     870.4        1.0262        3.0615        2.4902        5.5518       4.525550       0.06330
   5     894.1        0.1723        2.9420        1.6234        4.5654       4.393114       0.04701
   4     917.9        0.1749        2.8705        1.5888        4.4593       4.284371       0.03860
   3     941.7        0.1779        2.8012        1.5550        4.3562       4.178296       0.03765
   2     965.5        0.1812        2.7343        1.5220        4.2563       4.075087       0.03663
   1     989.2        0.1850        2.6696        1.4898        4.1594       3.974461       0.03571
   0    1013.0        0.1892        2.6070        1.4584        4.0654       3.876202       0.03489



 Wavenumbers:  5150. -  6150. cm-1, ATM      1
 LEVEL PRESSURE   UPWARD FLUX   DIFDOWN FLUX  DIRDOWN FLUX  DOWNWARD FLUX   NET FLUX    HEATING RATE
          mb          W/m2          W/m2          W/m2        W/m2          W/m2       degree/day
  60   .000300        7.6252        0.0000       34.6891       34.6891      27.063848       0.00000
  59    0.1000        7.6252        0.0000       34.6886       34.6886      27.063352       0.04201
  58    0.1403        7.6252        0.0000       34.6884       34.6884      27.063151       0.04194
  57    0.1968        7.6252        0.0000       34.6881       34.6881      27.062870       0.04211
  56    0.2760        7.6252        0.0000       34.6877       34.6877      27.062478       0.04167
  55    0.3871        7.6252        0.0000       34.6871       34.6871      27.061929       0.04177
  54    0.5430        7.6252        0.0000       34.6864       34.6864      27.061162       0.04148
  53    0.7617        7.6252        0.0000       34.6853       34.6853      27.060092       0.04129
  52     1.069        7.6252        0.0000       34.6838       34.6838      27.058585       0.04147
  51     1.499        7.6252        0.0000       34.6817       34.6817      27.056492       0.04103
  50     2.102        7.6252        0.0001       34.6787       34.6788      27.053599       0.04045
  49     2.949        7.6252        0.0001       34.6746       34.6747      27.049513       0.04073
  48     4.137        7.6252        0.0001       34.6689       34.6690      27.043828       0.04040
  47     5.803        7.6252        0.0002       34.6610       34.6612      27.035987       0.03972
  46     8.139        7.6252        0.0002       34.6502       34.6505      27.025240       0.03881
  45     11.42        7.6253        0.0003       34.6356       34.6359      27.010643       0.03758
  44     16.01        7.6253        0.0005       34.6159       34.6164      26.991068       0.03593
  43     22.46        7.6254        0.0007       34.5899       34.5906      26.965198       0.03385
  42     31.51        7.6255        0.0009       34.5564       34.5573      26.931773       0.03118
  41     44.20        7.6258        0.0013       34.5139       34.5153      26.889444       0.02815
  40     62.00        7.6263        0.0018       34.4619       34.4637      26.837421       0.02466
  39     85.78        7.6270        0.0025       34.4020       34.4045      26.777516       0.02126
  38     109.5        7.6278        0.0033       34.3491       34.3524      26.724546       0.01880
  37     133.1        7.6286        0.0039       34.3031       34.3071      26.678430       0.01656
  36     156.8        7.6294        0.0046       34.2595       34.2641      26.634659       0.01552
  35     180.6        7.6303        0.0053       34.2031       34.2084      26.578049       0.02010
  34     202.8        7.6312        0.0060       34.1091       34.1151      26.483909       0.03574
  33     228.4        7.6322        0.0066       33.9252       33.9319      26.299669       0.06079
  32     252.2        7.6333        0.0073       33.6087       33.6159      25.982666       0.11252
  31     276.0        7.6345        0.0079       33.1225       33.1304      25.495932       0.17277
  30     299.8        7.6359        0.0084       32.4763       32.4847      24.848852       0.22969
  29     323.5        7.6376        0.0089       31.7610       31.7699      24.132267       0.25436
  28     347.3        7.6397        0.0093       31.0137       31.0231      23.383374       0.26583
  27     371.1        7.6422        0.0097       30.2247       30.2344      22.592220       0.28083
  26     394.9        7.6453        0.0101       29.3520       29.3621      21.716781       0.31074
  25     418.6        7.6490        0.0104       28.4400       28.4504      20.801396       0.32492
  24     442.4        7.6536        0.0107       27.5194       27.5301      19.876544       0.32828
  23     466.2        7.6590        0.0110       26.6227       26.6337      18.974724       0.32011
  22     489.9        7.6655        0.0113       25.7669       25.7781      18.112580       0.30603
  21     513.7        7.6736        0.0115       24.9371       24.9486      17.275001       0.29731
  20     537.5        7.6834        0.0117       24.1537       24.1655      16.482100       0.28145
  19     561.3        7.6953        0.0120       23.4247       23.4367      15.741354       0.26293
  18     585.0        7.7100        0.0122       22.7500       22.7622      15.052204       0.24462
  17     608.8        7.7275        0.0124       22.1480       22.1605      14.432988       0.21980
  16     632.6        7.7484        0.0127       21.6116       21.6243      13.875938       0.19773
  15     656.4        7.7742        0.0129       21.1193       21.1323      13.358120       0.18380
  14     680.1        7.8059        0.0132       20.6722       20.6854      12.879444       0.16991
  13     703.9        7.8452        0.0135       20.2664       20.2798      12.434636       0.15789
  12     727.7        7.8949        0.0137       19.8884       19.9021      12.007261       0.15170
  11     751.5        7.9592        0.0140       19.5264       19.5404      11.581193       0.15124
  10     775.2        8.0430        0.0142       19.1765       19.1907      11.147726       0.15386
   9     799.0        8.1536        0.0144       18.8290       18.8435      10.689850       0.16253
   8     822.8        6.0710        3.9983       12.3118       16.3101      10.239111       0.15999
   7     846.6        4.1154        5.9303        8.0532       13.9835       9.868074       0.13170
   6     870.4        2.2451        6.5485        5.2706       11.8191       9.573931       0.10441
   5     894.1        0.4251        6.3297        3.4509        9.7806       9.355544       0.07752
   4     917.9        0.4276        6.2147        3.3921        9.6068       9.179185       0.06260
   3     941.7        0.4307        6.1067        3.3355        9.4421       9.011472       0.05953
   2     965.5        0.4343        6.0065        3.2819        9.2884       8.854013       0.05589
   1     989.2        0.4389        5.9143        3.2315        9.1458       8.706917       0.05220
   0    1013.0        0.4446        5.8293        3.1845        9.0139       8.569304       0.04886



 Wavenumbers:  6150. -  7700. cm-1, ATM      1
 LEVEL PRESSURE   UPWARD FLUX   DIFDOWN FLUX  DIRDOWN FLUX  DOWNWARD FLUX   NET FLUX    HEATING RATE
          mb          W/m2          W/m2          W/m2        W/m2          W/m2       degree/day
  60   .000300       11.9725        0.0000       64.1588       64.1588      52.186300       0.00000
  59    0.1000       11.9725        0.0000       64.1581       64.1581      52.185641       0.05584
  58    0.1403       11.9725        0.0000       64.1578       64.1578      52.185374       0.05593
  57    0.1968       11.9725        0.0000       64.1574       64.1574      52.184997       0.05625
  56    0.2760       11.9724        0.0000       64.1569       64.1569      52.184473       0.05580
  55    0.3871       11.9724        0.0000       64.1561       64.1562      52.183735       0.05604
  54    0.5430       11.9724        0.0001       64.1551       64.1551      52.182705       0.05578
  53    0.7617       11.9724        0.0001       64.1536       64.1537      52.181264       0.05562
  52     1.069       11.9724        0.0001       64.1515       64.1516      52.179231       0.05590
  51     1.499       11.9723        0.0002       64.1486       64.1488      52.176415       0.05524
  50     2.102       11.9723        0.0003       64.1446       64.1448      52.172526       0.05437
  49     2.949       11.9722        0.0004       64.1389       64.1393      52.167041       0.05468
  48     4.137       11.9721        0.0005       64.1310       64.1315      52.159409       0.05423
  47     5.803       11.9720        0.0007       64.1201       64.1208      52.148859       0.05344
  46     8.139       11.9718        0.0010       64.1051       64.1061      52.134324       0.05249
  45     11.42       11.9715        0.0014       64.0845       64.0859      52.114407       0.05128
  44     16.01       11.9711        0.0020       64.0565       64.0584      52.087356       0.04965
  43     22.46       11.9705        0.0028       64.0187       64.0215      52.050926       0.04767
  42     31.51       11.9698        0.0039       63.9683       63.9722      52.002414       0.04525
  41     44.20       11.9687        0.0054       63.9021       63.9076      51.938865       0.04226
  40     62.00       11.9672        0.0076       63.8170       63.8246      51.857423       0.03861
  39     85.78       11.9652        0.0105       63.7137       63.7242      51.759008       0.03493
  38     109.5       11.9632        0.0134       63.6174       63.6308      51.667675       0.03242
  37     133.1       11.9612        0.0162       63.5307       63.5469      51.585675       0.02945
  36     156.8       11.9594        0.0190       63.4470       63.4660      51.506590       0.02804
  35     180.6       11.9574        0.0219       63.3411       63.3630      51.405580       0.03586
  34     202.8       11.9556        0.0246       63.1774       63.2021      51.246453       0.06042
  33     228.4       11.9539        0.0274       62.8910       62.9184      50.964543       0.09301
  32     252.2       11.9524        0.0301       62.4548       62.4849      50.532515       0.15335
  31     276.0       11.9512        0.0326       61.8034       61.8360      49.884778       0.22992
  30     299.8       11.9505        0.0349       60.8493       60.8841      48.933612       0.33762
  29     323.5       11.9506        0.0370       59.6406       59.6776      47.726991       0.42830
  28     347.3       11.9517        0.0389       58.2994       58.3383      46.386594       0.47579
  27     371.1       11.9539        0.0406       56.9373       56.9780      45.024064       0.48364
  26     394.9       11.9577        0.0422       55.4853       55.5276      43.569918       0.51616
  25     418.6       11.9633        0.0437       53.9434       53.9870      42.023733       0.54883
  24     442.4       11.9712        0.0449       52.3152       52.3601      40.388878       0.58031
  23     466.2       11.9817        0.0460       50.6699       50.7159      38.734162       0.58736
  22     489.9       11.9953        0.0471       49.0609       49.1080      37.112648       0.57557
  21     513.7       12.0130        0.0480       47.4627       47.5107      35.497667       0.57325
  20     537.5       12.0355        0.0488       45.9016       45.9504      33.914927       0.56181
  19     561.3       12.0638        0.0495       44.3828       44.4323      32.368527       0.54891
  18     585.0       12.0993        0.0502       42.9069       42.9571      30.857822       0.53624
  17     608.8       12.1422        0.0508       41.5192       41.5701      29.427900       0.50756
  16     632.6       12.1940        0.0514       40.2123       40.2637      28.069744       0.48209
  15     656.4       12.2586        0.0520       38.9372       38.9892      26.730570       0.47535
  14     680.1       12.3389        0.0525       37.7038       37.7563      25.417435       0.46611
  13     703.9       12.4388        0.0529       36.5148       36.5677      24.128905       0.45738
  12     727.7       12.5663        0.0533       35.3478       35.4011      22.834783       0.45936
  11     751.5       12.7341        0.0535       34.1879       34.2415      21.507361       0.47118
  10     775.2       12.9562        0.0537       33.0529       33.1067      20.150536       0.48162
   9     799.0       13.2580        0.0539       31.9455       31.9994      18.741410       0.50018
   8     822.8        9.7878        6.6251       20.5744       27.1995      17.411689       0.47200
   7     846.6        6.5869        9.6836       13.2803       22.9639      16.377007       0.36727
   6     870.4        3.5614       10.5681        8.5910       19.1591      15.597635       0.27665
   5     894.1        0.6358       10.1091        5.5662       15.6753      15.039540       0.19810
   4     917.9        0.6428        9.8236        5.4191       15.2426      14.599829       0.15608
   3     941.7        0.6512        9.5571        5.2797       14.8368      14.185620       0.14703
   2     965.5        0.6612        9.3086        5.1484       14.4570      13.795792       0.13837
   1     989.2        0.6733        9.0767        5.0244       14.1011      13.427775       0.13060
   0    1013.0        0.6883        8.8590        4.9072       13.7662      13.077964       0.12419



 Wavenumbers:  7700. -  8050. cm-1, ATM      1
 LEVEL PRESSURE   UPWARD FLUX   DIFDOWN FLUX  DIRDOWN FLUX  DOWNWARD FLUX   NET FLUX    HEATING RATE
          mb          W/m2          W/m2          W/m2        W/m2          W/m2       degree/day
  60   .000300        5.8987        0.0000       15.1626       15.1626       9.263955       0.00000
  59    0.1000        5.8987        0.0000       15.1625       15.1625       9.263756       0.01686
  58    0.1403        5.8987        0.0000       15.1624       15.1624       9.263675       0.01695
  57    0.1968        5.8987        0.0000       15.1623       15.1623       9.263560       0.01704
  56    0.2760        5.8988        0.0000       15.1622       15.1622       9.263402       0.01690
  55    0.3871        5.8988        0.0000       15.1620       15.1620       9.263178       0.01698
  54    0.5430        5.8989        0.0000       15.1617       15.1617       9.262866       0.01691
  53    0.7617        5.8989        0.0000       15.1613       15.1614       9.262428       0.01688
  52     1.069        5.8991        0.0001       15.1608       15.1609       9.261810       0.01700
  51     1.499        5.8992        0.0001       15.1601       15.1602       9.260952       0.01684
  50     2.102        5.8994        0.0001       15.1591       15.1592       9.259761       0.01665
  49     2.949        5.8997        0.0002       15.1576       15.1578       9.258071       0.01684
  48     4.137        5.9002        0.0002       15.1556       15.1559       9.255700       0.01685
  47     5.803        5.9008        0.0003       15.1528       15.1532       9.252386       0.01679
  46     8.139        5.9016        0.0005       15.1489       15.1494       9.247749       0.01674
  45     11.42        5.9028        0.0006       15.1434       15.1441       9.241260       0.01671
  44     16.01        5.9045        0.0009       15.1358       15.1367       9.232190       0.01665
  43     22.46        5.9068        0.0012       15.1251       15.1263       9.219500       0.01660
  42     31.51        5.9101        0.0017       15.1101       15.1119       9.201756       0.01655
  41     44.20        5.9148        0.0024       15.0892       15.0917       9.176925       0.01651
  40     62.00        5.9213        0.0034       15.0604       15.0638       9.142490       0.01633
  39     85.78        5.9301        0.0047       15.0223       15.0270       9.096872       0.01619
  38     109.5        5.9393        0.0060       14.9841       14.9902       9.050901       0.01632
  37     133.1        5.9481        0.0073       14.9478       14.9551       9.006977       0.01577
  36     156.8        5.9569        0.0085       14.9129       14.9214       8.964541       0.01505
  35     180.6        5.9663        0.0098       14.8763       14.8861       8.919774       0.01589
  34     202.8        5.9755        0.0110       14.8414       14.8524       8.876945       0.01626
  33     228.4        5.9850        0.0123       14.8062       14.8185       8.833489       0.01434
  32     252.2        5.9947        0.0135       14.7713       14.7848       8.790115       0.01540
  31     276.0        6.0044        0.0148       14.7370       14.7518       8.747379       0.01517
  30     299.8        6.0144        0.0160       14.7027       14.7188       8.704382       0.01526
  29     323.5        6.0246        0.0173       14.6685       14.6858       8.661249       0.01531
  28     347.3        6.0349        0.0185       14.6347       14.6532       8.618352       0.01523
  27     371.1        6.0453        0.0197       14.6014       14.6211       8.575784       0.01511
  26     394.9        6.0562        0.0210       14.5675       14.5885       8.532284       0.01544
  25     418.6        6.0674        0.0222       14.5336       14.5558       8.488414       0.01557
  24     442.4        6.0789        0.0234       14.4995       14.5230       8.444013       0.01576
  23     466.2        6.0909        0.0246       14.4651       14.4898       8.398893       0.01602
  22     489.9        6.1031        0.0258       14.4307       14.4566       8.353514       0.01611
  21     513.7        6.1158        0.0270       14.3957       14.4227       8.306915       0.01654
  20     537.5        6.1290        0.0282       14.3603       14.3886       8.259614       0.01679
  19     561.3        6.1426        0.0294       14.3246       14.3540       8.211403       0.01711
  18     585.0        6.1571        0.0306       14.2875       14.3181       8.161081       0.01786
  17     608.8        6.1721        0.0318       14.2500       14.2818       8.109738       0.01822
  16     632.6        6.1877        0.0329       14.2119       14.2449       8.057200       0.01865
  15     656.4        6.2043        0.0341       14.1722       14.2063       8.001981       0.01960
  14     680.1        6.2219        0.0352       14.1314       14.1666       7.944663       0.02035
  13     703.9        6.2406        0.0364       14.0891       14.1255       7.884866       0.02123
  12     727.7        6.2608        0.0375       14.0446       14.0821       7.821290       0.02257
  11     751.5        6.2829        0.0386       13.9973       14.0359       7.752993       0.02424
  10     775.2        6.3070        0.0397       13.9473       13.9871       7.680055       0.02589
   9     799.0        6.3334        0.0408       13.8944       13.9352       7.601827       0.02777
   8     822.8        4.7641        3.0674        9.2197       12.2872       7.523077       0.02795
   7     846.6        3.2618        4.5977        6.1179       10.7156       7.453741       0.02461
   6     870.4        1.8043        5.1419        4.0578        9.1998       7.395501       0.02067
   5     894.1        0.3757        5.0336        2.6915        7.7251       7.349377       0.01637
   4     917.9        0.3771        5.0067        2.6792        7.6859       7.308790       0.01441
   3     941.7        0.3786        4.9788        2.6666        7.6454       7.266794       0.01491
   2     965.5        0.3802        4.9503        2.6535        7.6038       7.223613       0.01533
   1     989.2        0.3819        4.9210        2.6402        7.5612       7.179236       0.01575
   0    1013.0        0.3838        4.8910        2.6264        7.5175       7.133643       0.01619



 Wavenumbers:  8050. - 12850. cm-1, ATM      1
 LEVEL PRESSURE   UPWARD FLUX   DIFDOWN FLUX  DIRDOWN FLUX  DOWNWARD FLUX   NET FLUX    HEATING RATE
          mb          W/m2          W/m2          W/m2        W/m2          W/m2       degree/day
  60   .000300       73.9932        0.0000      212.2880      212.2880     138.294797       0.00000
  59    0.1000       73.9931        0.0003      212.2876      212.2878     138.294797       0.00000
  58    0.1403       73.9930        0.0004      212.2874      212.2878     138.294797      -0.00000
  57    0.1968       73.9929        0.0005      212.2872      212.2877     138.294797      -0.00000
  56    0.2760       73.9928        0.0007      212.2869      212.2876     138.294797       0.00000
  55    0.3871       73.9927        0.0010      212.2864      212.2875     138.294797      -0.00000
  54    0.5430       73.9925        0.0014      212.2858      212.2873     138.294797       0.00000
  53    0.7617       73.9922        0.0020      212.2850      212.2870     138.294797      -0.00000
  52     1.069       73.9918        0.0028      212.2837      212.2866     138.294797       0.00000
  51     1.499       73.9912        0.0040      212.2820      212.2860     138.294797       0.00000
  50     2.102       73.9905        0.0056      212.2797      212.2853     138.294797      -0.00000
  49     2.949       73.9894        0.0078      212.2763      212.2842     138.294797       0.00000
  48     4.137       73.9878        0.0110      212.2717      212.2826     138.294797      -0.00000
  47     5.803       73.9857        0.0154      212.2651      212.2805     138.294797       0.00000
  46     8.139       73.9826        0.0215      212.2559      212.2774     138.294797      -0.00000
  45     11.42       73.9784        0.0302      212.2430      212.2732     138.294797      -0.00000
  44     16.01       73.9725        0.0423      212.2250      212.2673     138.294797       0.00000
  43     22.46       73.9642        0.0592      212.1998      212.2590     138.294797      -0.00000
  42     31.51       73.9525        0.0830      212.1643      212.2473     138.294797       0.00000
  41     44.20       73.9361        0.1164      212.1145      212.2309     138.294797       0.00000
  40     62.00       73.9133        0.1631      212.0450      212.2081     138.294797       0.00000
  39     85.78       73.8827        0.2253      211.9522      212.1775     138.294797       0.00000
  38     109.5       73.8520        0.2886      211.8451      212.1337     138.281728       0.00464
  37     133.1       73.8224        0.3495      211.7421      212.0916     138.269215       0.00449
  36     156.8       73.7936        0.4088      211.6412      212.0500     138.256385       0.00455
  35     180.6       73.7629        0.4718      211.5292      212.0010     138.238091       0.00649
  34     202.8       73.7335        0.5325      211.4041      211.9366     138.203127       0.01328
  33     228.4       73.7037        0.5943      211.2349      211.8292     138.125553       0.02559
  32     252.2       73.6744        0.6562      211.0003      211.6565     137.982094       0.05092
  31     276.0       73.6466        0.7171      210.6760      211.3931     137.746504       0.08362
  30     299.8       73.6205        0.7782      210.2328      211.0110     137.390527       0.12636
  29     323.5       73.5971        0.8392      209.6743      210.5135     136.916350       0.16831
  28     347.3       73.5779        0.8991      209.0175      209.9167     136.338808       0.20500
  27     371.1       73.5634        0.9579      208.2872      209.2452     135.681735       0.23323
  26     394.9       73.5548        1.0170      207.4416      208.4586     134.903821       0.27613
  25     418.6       73.5536        1.0753      206.4758      207.5511     133.997506       0.32170
  24     442.4       73.5616        1.1327      205.3737      206.5064     132.944725       0.37369
  23     466.2       73.5801        1.1895      204.1488      205.3383     131.758158       0.42118
  22     489.9       73.6106        1.2447      202.8236      204.0684     130.457780       0.46158
  21     513.7       73.6565        1.2994      201.3667      202.6661     129.009626       0.51404
  20     537.5       73.7205        1.3525      199.7935      201.1460     127.425410       0.56233
  19     561.3       73.8063        1.4040      198.0998      199.5037     125.697453       0.61335
  18     585.0       73.9180        1.4551      196.2781      197.7332     123.815255       0.66810
  17     608.8       74.0563        1.5047      194.3934      195.8981     121.841815       0.70049
  16     632.6       74.2257        1.5528      192.4530      194.0057     119.779978       0.73187
  15     656.4       74.4393        1.6002      190.4000      192.0002     117.560857       0.78770
  14     680.1       74.7063        1.6457      188.2528      189.8985     115.192193       0.84078
  13     703.9       75.0386        1.6893      186.0204      187.7097     112.671039       0.89491
  12     727.7       75.4604        1.7315      183.6647      185.3962     109.935815       0.97089
  11     751.5       76.0077        1.7719      181.1466      182.9185     106.910838       1.07374
  10     775.2       76.7141        1.8098      178.4925      180.3022     103.588150       1.17942
   9     799.0       77.6354        1.8451      175.7106      177.5557      99.920348       1.30192
   8     822.8       57.9909       39.0966      115.1370      154.2336      96.242707       1.30541
   7     846.6       39.4780       57.1943       75.4730      132.6674      93.189382       1.08380
   6     870.4       21.7160       62.9813       49.4970      112.4783      90.762324       0.86151
   5     894.1        4.4106       60.8868       32.4721       93.3589      88.948247       0.64392
   4     917.9        4.4277       59.9050       31.9799       91.8850      87.457297       0.52923
   3     941.7        4.4503       58.9539       31.4982       90.4521      86.001766       0.51665
   2     965.5        4.4794       58.0365       31.0297       89.0661      84.586672       0.50230
   1     989.2        4.5165       57.1495       30.5741       87.7236      83.207084       0.48959
   0    1013.0        4.5633       56.2912       30.1302       86.4214      81.858061       0.47895



 Wavenumbers: 12850. - 16000. cm-1, ATM      1
 LEVEL PRESSURE   UPWARD FLUX   DIFDOWN FLUX  DIRDOWN FLUX  DOWNWARD FLUX   NET FLUX    HEATING RATE
          mb          W/m2          W/m2          W/m2        W/m2          W/m2       degree/day
  60   .000300       55.1075        0.0000      133.0172      133.0172      77.909669       0.00000
  59    0.1000       55.1074        0.0006      133.0095      133.0101      77.902751       0.58559
  58    0.1403       55.1073        0.0008      133.0064      133.0073      77.899913       0.59423
  57    0.1968       55.1074        0.0011      133.0021      133.0033      77.895906       0.59859
  56    0.2760       55.1074        0.0016      132.9962      132.9978      77.890341       0.59295
  55    0.3871       55.1076        0.0022      132.9880      132.9902      77.882606       0.58757
  54    0.5430       55.1080        0.0031      132.9769      132.9800      77.872027       0.57265
  53    0.7617       55.1088        0.0044      132.9618      132.9662      77.857387       0.56493
  52     1.069       55.1106        0.0062      132.9413      132.9475      77.836871       0.56434
  51     1.499       55.1140        0.0087      132.9135      132.9221      77.808123       0.56381
  50     2.102       55.1208        0.0121      132.8748      132.8869      77.766165       0.58663
  49     2.949       55.1340        0.0169      132.8176      132.8345      77.700485       0.65472
  48     4.137       55.1576        0.0238      132.7325      132.7563      77.598683       0.72341
  47     5.803       55.1941        0.0333      132.6115      132.6448      77.450666       0.74983
  46     8.139       55.2439        0.0466      132.4493      132.4959      77.252027       0.71740
  45     11.42       55.3059        0.0652      132.2424      132.3076      77.001795       0.64426
  44     16.01       55.3802        0.0912      131.9828      132.0740      76.693750       0.56542
  43     22.46       55.4675        0.1276      131.6592      131.7868      76.319283       0.49000
  42     31.51       55.5605        0.1784      131.2747      131.4531      75.892620       0.39802
  41     44.20       55.6437        0.2498      130.8450      131.0948      75.451097       0.29363
  40     62.00       55.7096        0.3491      130.3669      130.7160      75.006409       0.21083
  39     85.78       55.7344        0.4815      129.8828      130.3644      74.629998       0.13361
  38     109.5       55.7357        0.6169      129.4797      130.0965      74.360829       0.09554
  37     133.1       55.7260        0.7468      129.1217      129.8686      74.142606       0.07837
  36     156.8       55.7105        0.8730      128.7892      129.6622      73.951773       0.06767
  35     180.6       55.6861        1.0069      128.4511      129.4580      73.771925       0.06385
  34     202.8       55.6550        1.1355      128.1377      129.2732      73.618221       0.05836
  33     228.4       55.6198        1.2665      127.8216      129.0881      73.468250       0.04948
  32     252.2       55.5826        1.3975      127.5049      128.9024      73.319822       0.05269
  31     276.0       55.5441        1.5267      127.1922      128.7189      73.174769       0.05149
  30     299.8       55.5045        1.6567      126.8751      128.5318      73.027326       0.05234
  29     323.5       55.4653        1.7867      126.5537      128.3404      72.875112       0.05403
  28     347.3       55.4274        1.9152      126.2298      128.1449      72.717528       0.05594
  27     371.1       55.3914        2.0418      125.9047      127.9465      72.555130       0.05764
  26     394.9       55.3568        2.1698      125.5688      127.7386      72.381851       0.06151
  25     418.6       55.3248        2.2972      125.2257      127.5229      72.198066       0.06524
  24     442.4       55.2962        2.4240      124.8736      127.2976      72.001380       0.06982
  23     466.2       55.2712        2.5508      124.5111      127.0618      71.790682       0.07479
  22     489.9       55.2507        2.6756      124.1420      126.8177      71.567012       0.07939
  21     513.7       55.2354        2.8007      123.7577      126.5584      71.322992       0.08662
  20     537.5       55.2267        2.9241      123.3614      126.2855      71.058792       0.09378
  19     561.3       55.2256        3.0458      122.9509      125.9967      70.771033       0.10214
  18     585.0       55.2328        3.1685      122.5175      125.6860      70.453267       0.11279
  17     608.8       55.2474        3.2893      122.0752      125.3644      70.117082       0.11933
  16     632.6       55.2703        3.4080      121.6228      125.0308      69.760438       0.12659
  15     656.4       55.3043        3.5270      121.1473      124.6744      69.370045       0.13857
  14     680.1       55.3517        3.6438      120.6531      124.2969      68.945194       0.15080
  13     703.9       55.4151        3.7582      120.1376      123.8958      68.480707       0.16487
  12     727.7       55.4992        3.8719      119.5892      123.4610      67.961811       0.18419
  11     751.5       55.6089        3.9844      119.0038      122.9882      67.379269       0.20678
  10     775.2       55.7484        4.0942      118.3848      122.4790      66.730607       0.23025
   9     799.0       55.9242        4.2012      117.7284      121.9295      66.005345       0.25744
   8     822.8       42.2951       29.5825       77.9710      107.5536      65.258406       0.26513
   7     846.6       29.2536       42.2226       51.6382       93.8609      64.607204       0.23115
   6     870.4       16.5985       46.4691       34.1948       80.6639      64.065408       0.19232
   5     894.1        4.1971       45.1955       22.6437       67.8391      63.642062       0.15027
   4     917.9        4.1677       44.9399       22.5033       67.4433      63.275524       0.13011
   3     941.7        4.1399       44.6814       22.3612       67.0426      62.902687       0.13234
   2     965.5        4.1141       44.4215       22.2185       66.6401      62.526005       0.13371
   1     989.2        4.0903       44.1608       22.0754       66.2362      62.145956       0.13487
   0    1013.0        4.0687       43.8992       21.9320       65.8312      61.762500       0.13614



 Wavenumbers: 16000. - 22650. cm-1, ATM      1
 LEVEL PRESSURE   UPWARD FLUX   DIFDOWN FLUX  DIRDOWN FLUX  DOWNWARD FLUX   NET FLUX    HEATING RATE
          mb          W/m2          W/m2          W/m2        W/m2          W/m2       degree/day
  60   .000300       99.0228        0.0000      212.0812      212.0812     113.058345       0.00000
  59    0.1000       99.0220        0.0032      212.0760      212.0792     113.057262       0.09167
  58    0.1403       99.0218        0.0045      212.0737      212.0782     113.056395       0.18169
  57    0.1968       99.0216        0.0063      212.0701      212.0764     113.054825       0.23439
  56    0.2760       99.0216        0.0088      212.0648      212.0737     113.052066       0.29403
  55    0.3871       99.0219        0.0124      212.0569      212.0693     113.047414       0.35339
  54    0.5430       99.0227        0.0174      212.0449      212.0623     113.039613       0.42227
  53    0.7617       99.0248        0.0244      212.0263      212.0507     113.025848       0.53116
  52     1.069       99.0297        0.0343      211.9965      212.0308     113.001102       0.68069
  51     1.499       99.0400        0.0480      211.9488      211.9968     112.956800       0.86885
  50     2.102       99.0611        0.0670      211.8701      211.9371     112.875975       1.13005
  49     2.949       99.1037        0.0940      211.7353      211.8293     112.725529       1.49969
  48     4.137       99.1806        0.1318      211.5152      211.6470     112.466377       1.84155
  47     5.803       99.3004        0.1845      211.1861      211.3706     112.070196       2.00698
  46     8.139       99.4636        0.2583      210.7354      210.9936     111.530019       1.95088
  45     11.42       99.6655        0.3613      210.1559      210.5172     110.851660       1.74653
  44     16.01       99.9058        0.5051      209.4264      209.9314     110.025687       1.51609
  43     22.46      100.1844        0.7060      208.5155      209.2215     109.037156       1.29353
  42     31.51      100.4739        0.9868      207.4281      208.4149     107.941027       1.02254
  41     44.20      100.7171        1.3797      206.1997      207.5794     106.862306       0.71739
  40     62.00      100.8836        1.9254      204.7997      206.7252     105.841533       0.48396
  39     85.78      100.8896        2.6509      203.3150      205.9660     105.076348       0.27161
  38     109.5      100.7745        3.3841      202.0234      205.4074     104.632882       0.15741
  37     133.1      100.6321        4.0851      200.8408      204.9259     104.293838       0.12175
  36     156.8      100.4759        4.7627      199.7260      204.4887     104.012839       0.09964
  35     180.6      100.2868        5.4786      198.5859      204.0645     103.777684       0.08348
  34     202.8      100.0824        6.1639      197.5309      203.6948     103.612354       0.06277
  33     228.4       99.8624        6.8587      196.4789      203.3376     103.475133       0.04527
  32     252.2       99.6347        7.5510      195.4408      202.9918     103.357112       0.04189
  31     276.0       99.4027        8.2312      194.4310      202.6622     103.259489       0.03465
  30     299.8       99.1633        8.9126      193.4267      202.3393     103.176010       0.02963
  29     323.5       98.9208        9.5912      192.4286      202.0198     103.099045       0.02732
  28     347.3       98.6784       10.2598      191.4464      201.7062     103.027831       0.02528
  27     371.1       98.4372       10.9159      190.4836      201.3995     102.962266       0.02327
  26     394.9       98.1912       11.5772      189.5132      201.0905     102.899257       0.02237
  25     418.6       97.9448       12.2329      188.5503      200.7832     102.838358       0.02162
  24     442.4       97.6980       12.8841      187.5927      200.4767     102.778729       0.02117
  23     466.2       97.4499       13.5329      186.6371      200.1700     102.720078       0.02082
  22     489.9       97.2041       14.1706      185.6961      199.8667     102.662596       0.02040
  21     513.7       96.9568       14.8081      184.7529      199.5610     102.604228       0.02072
  20     537.5       96.7120       15.4359      183.8209      199.2568     102.544731       0.02112
  19     561.3       96.4697       16.0550      182.8981      198.9530     102.483340       0.02179
  18     585.0       96.2246       16.6789      181.9641      198.6430     102.418385       0.02306
  17     608.8       95.9828       17.2929      181.0409      198.3338     102.351052       0.02390
  16     632.6       95.7442       17.8974      180.1276      198.0250     102.280861       0.02492
  15     656.4       95.5043       18.5047      179.2047      197.7094     102.205128       0.02688
  14     680.1       95.2687       19.1028      178.2893      197.3921     102.123398       0.02901
  13     703.9       95.0378       19.6918      177.3803      197.0721     102.034305       0.03162
  12     727.7       94.8087       20.2805      176.4629      196.7434     101.934706       0.03535
  11     751.5       94.5828       20.8689      175.5353      196.4042     101.821400       0.04022
  10     775.2       94.3636       21.4496      174.6074      196.0571     101.693439       0.04542
   9     799.0       94.1523       22.0226      173.6783      195.7009     101.548628       0.05140
   8     822.8       72.7067       59.0215      115.0815      174.1030     101.396257       0.05409
   7     846.6       52.0325       77.0376       76.2539      153.2915     101.258968       0.04873
   6     870.4       31.8715       82.4862       50.5263      133.0125     101.140964       0.04189
   5     894.1       12.0506       79.6169       33.4790      113.0959     101.045322       0.03395
   4     917.9       11.8206       79.4853       33.2947      112.7800     100.959402       0.03050
   3     941.7       11.5904       79.3505       33.1101      112.4605     100.870099       0.03170
   2     965.5       11.3619       79.2135       32.9266      112.1401     100.778159       0.03263
   1     989.2       11.1350       79.0747       32.7442      111.8189     100.683882       0.03346
   0    1013.0       10.9097       78.9342       32.5629      111.4971     100.587448       0.03424



 Wavenumbers: 22650. - 29000. cm-1, ATM      1
 LEVEL PRESSURE   UPWARD FLUX   DIFDOWN FLUX  DIRDOWN FLUX  DOWNWARD FLUX   NET FLUX    HEATING RATE
          mb          W/m2          W/m2          W/m2        W/m2          W/m2       degree/day
  60   .000300       43.7394        0.0000       80.0317       80.0317      36.292293       0.00000
  59    0.1000       43.7382        0.0038       80.0267       80.0305      36.292293      -0.00000
  58    0.1403       43.7377        0.0053       80.0247       80.0300      36.292293       0.00000
  57    0.1968       43.7370        0.0075       80.0218       80.0293      36.292293       0.00000
  56    0.2760       43.7360        0.0105       80.0178       80.0283      36.292293       0.00000
  55    0.3871       43.7346        0.0147       80.0122       80.0269      36.292293      -0.00000
  54    0.5430       43.7327        0.0207       80.0043       80.0250      36.292293       0.00000
  53    0.7617       43.7300        0.0290       79.9933       80.0223      36.292293       0.00000
  52     1.069       43.7262        0.0407       79.9778       80.0185      36.292293       0.00000
  51     1.499       43.7209        0.0570       79.9562       80.0132      36.292293      -0.00000
  50     2.102       43.7136        0.0795       79.9263       80.0059      36.292293      -0.00000
  49     2.949       43.7032        0.1115       79.8839       79.9954      36.292293       0.00000
  48     4.137       43.6885        0.1564       79.8244       79.9808      36.292293       0.00000
  47     5.803       43.6681        0.2192       79.7412       79.9604      36.292293      -0.00000
  46     8.139       43.6395        0.3068       79.6249       79.9318      36.292293       0.00000
  45     11.42       43.5994        0.4294       79.4623       79.8917      36.292293      -0.00000
  44     16.01       43.5433        0.6003       79.2352       79.8356      36.292293       0.00000
  43     22.46       43.4646        0.8390       78.9179       79.7569      36.292293       0.00000
  42     31.51       43.3544        1.1716       78.4751       79.6467      36.292293      -0.00000
  41     44.20       43.1996        1.6346       77.8573       79.4919      36.292293       0.00000
  40     62.00       42.9839        2.2724       77.0038       79.2762      36.292293       0.00000
  39     85.78       42.6963        3.1094       75.8793       78.9886      36.292293      -0.00000
  38     109.5       42.4046        3.9429       74.7539       78.6969      36.292293       0.00000
  37     133.1       42.1241        4.7295       73.6869       78.4164      36.292293       0.00000
  36     156.8       41.8517        5.4802       72.6637       78.1439      36.292293      -0.00000
  35     180.6       41.5624        6.2626       71.5922       77.8547      36.292293       0.00000
  34     202.8       41.2843        7.0009       70.5757       77.5766      36.292293       0.00000
  33     228.4       41.0010        7.7391       69.5542       77.2933      36.292293       0.00000
  32     252.2       40.7172        8.4646       68.5449       77.0095      36.292293       0.00000
  31     276.0       40.4370        9.1674       67.5619       76.7293      36.292293       0.00000
  30     299.8       40.1549        9.8617       66.5855       76.4472      36.292293       0.00000
  29     323.5       39.8724       10.5435       65.6212       76.1647      36.292293       0.00000
  28     347.3       39.5926       11.2057       64.6791       75.8849      36.292293      -0.00000
  27     371.1       39.3165       11.8467       63.7621       75.6088      36.292293       0.00000
  26     394.9       39.0367       12.4835       62.8455       75.3290      36.292293      -0.00000
  25     418.6       38.7577       13.1061       61.9439       75.0500      36.292293       0.00000
  24     442.4       38.4791       13.7156       61.0558       74.7714      36.292293       0.00000
  23     466.2       38.1999       14.3141       60.1781       74.4922      36.292293      -0.00000
  22     489.9       37.9239       14.8939       59.3223       74.2162      36.292293      -0.00000
  21     513.7       37.6463       15.4651       58.4735       73.9386      36.292293       0.00000
  20     537.5       37.3714       16.0195       57.6441       73.6637      36.292293      -0.00000
  19     561.3       37.0986       16.5584       56.8325       73.3909      36.292293       0.00000
  18     585.0       36.8220       17.0936       56.0207       73.1143      36.292293      -0.00000
  17     608.8       36.5480       17.6125       55.2278       72.8403      36.292293       0.00000
  16     632.6       36.2767       18.1159       54.4531       72.5690      36.292293      -0.00000
  15     656.4       36.0023       18.6142       53.6804       72.2946      36.292293       0.00000
  14     680.1       35.7303       19.0977       52.9249       72.0226      36.292293       0.00000
  13     703.9       35.4605       19.5669       52.1859       71.7528      36.292293       0.00000
  12     727.7       35.1889       20.0293       51.4520       71.4812      36.292293       0.00000
  11     751.5       34.9155       20.4846       50.7232       71.2078      36.292293       0.00000
  10     775.2       34.6435       20.9275       50.0082       70.9358      36.292293      -0.00000
   9     799.0       34.3728       21.3584       49.3067       70.6651      36.292293       0.00000
   8     822.8       26.6739       30.5811       32.3851       62.9662      36.292248       0.00002
   7     846.6       19.1971       34.2181       21.2712       55.4893      36.292209       0.00001
   6     870.4       11.8674       34.1875       13.9721       48.1596      36.292177       0.00001
   5     894.1        4.6348       31.7491        9.1778       40.9269      36.292152       0.00001
   4     917.9        4.3838       31.6273        9.0487       40.6760      36.292152      -0.00000
   3     941.7        4.1322       31.5032        8.9212       40.4244      36.292152       0.00000
   2     965.5        3.8819       31.3779        8.7962       40.1740      36.292152       0.00000
   1     989.2        3.6328       31.2513        8.6736       39.9249      36.292152       0.00000
   0    1013.0        3.3848       31.1235        8.5535       39.6770      36.292152      -0.00000



 Wavenumbers: 29000. - 38000. cm-1, ATM      1
 LEVEL PRESSURE   UPWARD FLUX   DIFDOWN FLUX  DIRDOWN FLUX  DOWNWARD FLUX   NET FLUX    HEATING RATE
          mb          W/m2          W/m2          W/m2        W/m2          W/m2       degree/day
  60   .000300        7.6640        0.0000       28.2225       28.2225      20.558506       0.00000
  59    0.1000        7.6623        0.0028       28.1859       28.1887      20.526468       2.71187
  58    0.1403        7.6616        0.0040       28.1585       28.1625      20.500892       5.35579
  57    0.1968        7.6608        0.0056       28.1101       28.1157      20.454931       6.86500
  56    0.2760        7.6598        0.0078       28.0271       28.0349      20.375156       8.50048
  55    0.3871        7.6584        0.0109       27.8913       27.9022      20.243780       9.97925
  54    0.5430        7.6568        0.0151       27.6738       27.6888      20.032013      11.46336
  53    0.7617        7.6551        0.0207       27.3185       27.3392      19.684100      13.42519
  52     1.069        7.6537        0.0282       26.7574       26.7855      19.131872      15.19012
  51     1.499        7.6533        0.0377       25.9466       25.9844      18.331066      15.70560
  50     2.102        7.6558        0.0498       24.8886       24.9384      17.282610      14.65882
  49     2.949        7.6645        0.0656       23.6539       23.7195      16.054975      12.23742
  48     4.137        7.6836        0.0863       22.3800       22.4663      14.782641       9.04127
  47     5.803        7.7158        0.1138       21.1533       21.2671      13.551314       6.23768
  46     8.139        7.7610        0.1509       20.0304       20.1814      12.420375       4.08446
  45     11.42        7.8178        0.2012       19.0179       19.2192      11.401339       2.62365
  44     16.01        7.8871        0.2692       18.0801       18.3492      10.462152       1.72389
  43     22.46        7.9710        0.3613       17.1858       17.5471       9.576069       1.15947
  42     31.51        8.0625        0.4868       16.3448       16.8316       8.769053       0.75284
  41     44.20        8.1421        0.6594       15.5663       16.2257       8.083669       0.45581
  40     62.00        8.1983        0.8943       14.8065       15.7008       7.502507       0.27554
  39     85.78        8.1945        1.2008       14.0925       15.2933       7.098775       0.14331
  38     109.5        8.1449        1.5040       13.5167       15.0207       6.875845       0.07913
  37     133.1        8.0873        1.7835       13.0134       14.7969       6.709536       0.05972
  36     156.8        8.0269        2.0438       12.5564       14.6002       6.573243       0.04833
  35     180.6        7.9552        2.3103       12.1053       14.4156       6.460445       0.04005
  34     202.8        7.8780        2.5581       11.7016       14.2596       6.381668       0.02991
  33     228.4        7.7955        2.8010       11.3112       14.1122       6.316637       0.02146
  32     252.2        7.7109        3.0347       10.9372       13.9719       6.261031       0.01974
  31     276.0        7.6251        3.2566       10.5839       13.8405       6.215424       0.01619
  30     299.8        7.5370        3.4715       10.2424       13.7139       6.176892       0.01368
  29     323.5        7.4482        3.6776        9.9126       13.5902       6.141975       0.01239
  28     347.3        7.3600        3.8731        9.5973       13.4704       6.110367       0.01122
  27     371.1        7.2725        4.0579        9.2967       13.3546       6.082073       0.01004
  26     394.9        7.1836        4.2373        9.0022       13.2395       6.055851       0.00931
  25     418.6        7.0949        4.4082        8.7182       13.1264       6.031548       0.00863
  24     442.4        7.0061        4.5714        8.4437       13.0151       6.008953       0.00802
  23     466.2        6.9171        4.7276        8.1775       12.9051       5.988014       0.00743
  22     489.9        6.8290        4.8750        7.9229       12.7978       5.968830       0.00681
  21     513.7        6.7404        5.0163        7.6749       12.6911       5.950785       0.00641
  20     537.5        6.6526        5.1496        7.4369       12.5865       5.933883       0.00600
  19     561.3        6.5656        5.2756        7.2080       12.4836       5.917997       0.00564
  18     585.0        6.4774        5.3970        6.9831       12.3801       5.902658       0.00544
  17     608.8        6.3902        5.5112        6.7672       12.2784       5.888140       0.00515
  16     632.6        6.3039        5.6185        6.5598       12.1783       5.874376       0.00489
  15     656.4        6.2168        5.7213        6.3565       12.0778       5.861046       0.00473
  14     680.1        6.1305        5.8177        6.1611       11.9788       5.848373       0.00450
  13     703.9        6.0450        5.9081        5.9732       11.8813       5.836310       0.00428
  12     727.7        5.9590        5.9939        5.7897       11.7836       5.824648       0.00414
  11     751.5        5.8725        6.0753        5.6105       11.6858       5.813377       0.00400
  10     775.2        5.7865        6.1514        5.4377       11.5891       5.802616       0.00382
   9     799.0        5.7011        6.2224        5.2710       11.4934       5.792332       0.00365
   8     822.8        4.4641        6.8437        3.4033       10.2470       5.782914       0.00334
   7     846.6        3.2534        6.8309        2.1975        9.0284       5.775021       0.00280
   6     870.4        2.0601        6.4096        1.4191        7.8287       5.768649       0.00226
   5     894.1        0.8782        5.7254        0.9165        6.6419       5.763735       0.00174
   4     917.9        0.7947        5.6660        0.8882        6.5543       5.759592       0.00147
   3     941.7        0.7110        5.6058        0.8608        6.4666       5.755621       0.00141
   2     965.5        0.6277        5.5452        0.8344        6.3796       5.751846       0.00134
   1     989.2        0.5449        5.4843        0.8089        6.2932       5.748256       0.00127
   0    1013.0        0.4625        5.4230        0.7843        6.2073       5.744842       0.00121



 Wavenumbers: 38000. - 50000. cm-1, ATM      1
 LEVEL PRESSURE   UPWARD FLUX   DIFDOWN FLUX  DIRDOWN FLUX  DOWNWARD FLUX   NET FLUX    HEATING RATE
          mb          W/m2          W/m2          W/m2        W/m2          W/m2       degree/day
  60   .000300        0.0069        0.0000        1.7407        1.7407       1.733864       0.00000
  59    0.1000        0.0063        0.0006        1.7198        1.7204       1.714069       1.67562
  58    0.1403        0.0061        0.0008        1.7047        1.7056       1.699408       3.07012
  57    0.1968        0.0059        0.0012        1.6784        1.6796       1.673683       3.84232
  56    0.2760        0.0056        0.0016        1.6341        1.6357       1.630132       4.64062
  55    0.3871        0.0051        0.0021        1.5634        1.5655       1.560405       5.29648
  54    0.5430        0.0046        0.0028        1.4543        1.4571       1.452495       5.84133
  53    0.7617        0.0039        0.0034        1.2861        1.2895       1.285598       6.44019
  52     1.069        0.0031        0.0037        1.0457        1.0495       1.046342       6.58121
  51     1.499        0.0024        0.0037        0.7523        0.7559       0.753565       5.74202
  50     2.102        0.0017        0.0031        0.4664        0.4695       0.467843       3.99478
  49     2.949        0.0012        0.0024        0.2581        0.2604       0.259286       2.07895
  48     4.137        0.0008        0.0017        0.1381        0.1398       0.139011       0.85468
  47     5.803        0.0005        0.0013        0.0728        0.0741       0.073572       0.33150
  46     8.139        0.0003        0.0009        0.0388        0.0397       0.039349       0.12360
  45     11.42        0.0002        0.0006        0.0198        0.0204       0.020194       0.04932
  44     16.01        0.0001        0.0004        0.0090        0.0093       0.009236       0.02011
  43     22.46        0.0000        0.0002        0.0034        0.0036       0.003591       0.00739
  42     31.51        0.0000        0.0001        0.0011        0.0012       0.001179       0.00225
  41     44.20        0.0000        0.0000        0.0003        0.0003       0.000327       0.00057
  40     62.00        0.0000        0.0000        0.0001        0.0001       0.000070       0.00012
  39     85.78        0.0000        0.0000        0.0000        0.0000       0.000012       0.00002
  38     109.5        0.0000        0.0000        0.0000        0.0000       0.000002       0.00000
  37     133.1        0.0000        0.0000        0.0000        0.0000       0.000000       0.00000
  36     156.8        0.0000        0.0000        0.0000        0.0000       0.000000       0.00000
  35     180.6        0.0000        0.0000        0.0000        0.0000       0.000000       0.00000
  34     202.8        0.0000        0.0000        0.0000        0.0000       0.000000       0.00000
  33     228.4        0.0000        0.0000        0.0000        0.0000       0.000000       0.00000
  32     252.2        0.0000        0.0000        0.0000        0.0000       0.000000       0.00000
  31     276.0        0.0000        0.0000        0.0000        0.0000       0.000000       0.00000
  30     299.8        0.0000        0.0000        0.0000        0.0000       0.000000       0.00000
  29     323.5        0.0000        0.0000        0.0000        0.0000       0.000000       0.00000
  28     347.3        0.0000        0.0000        0.0000        0.0000       0.000000       0.00000
  27     371.1        0.0000        0.0000        0.0000        0.0000       0.000000       0.00000
  26     394.9        0.0000        0.0000        0.0000        0.0000       0.000000       0.00000
  25     418.6        0.0000        0.0000        0.0000        0.0000       0.000000       0.00000
  24     442.4        0.0000        0.0000        0.0000        0.0000       0.000000       0.00000
  23     466.2        0.0000        0.0000        0.0000        0.0000       0.000000       0.00000
  22     489.9        0.0000        0.0000        0.0000        0.0000       0.000000       0.00000
  21     513.7        0.0000        0.0000        0.0000        0.0000       0.000000       0.00000
  20     537.5        0.0000        0.0000        0.0000        0.0000       0.000000       0.00000
  19     561.3        0.0000        0.0000        0.0000        0.0000       0.000000       0.00000
  18     585.0        0.0000        0.0000        0.0000        0.0000       0.000000       0.00000
  17     608.8        0.0000        0.0000        0.0000        0.0000       0.000000       0.00000
  16     632.6        0.0000        0.0000        0.0000        0.0000       0.000000       0.00000
  15     656.4        0.0000        0.0000        0.0000        0.0000       0.000000       0.00000
  14     680.1        0.0000        0.0000        0.0000        0.0000       0.000000       0.00000
  13     703.9        0.0000        0.0000        0.0000        0.0000       0.000000       0.00000
  12     727.7        0.0000        0.0000        0.0000        0.0000       0.000000       0.00000
  11     751.5        0.0000        0.0000        0.0000        0.0000       0.000000       0.00000
  10     775.2        0.0000        0.0000        0.0000        0.0000       0.000000       0.00000
   9     799.0        0.0000        0.0000        0.0000        0.0000       0.000000       0.00000
   8     822.8        0.0000        0.0000        0.0000        0.0000       0.000000       0.00000
   7     846.6        0.0000        0.0000        0.0000        0.0000       0.000000       0.00000
   6     870.4        0.0000        0.0000        0.0000        0.0000       0.000000       0.00000
   5     894.1        0.0000        0.0000        0.0000        0.0000       0.000000       0.00000
   4     917.9        0.0000        0.0000        0.0000        0.0000       0.000000       0.00000
   3     941.7        0.0000        0.0000        0.0000        0.0000       0.000000       0.00000
   2     965.5        0.0000        0.0000        0.0000        0.0000       0.000000       0.00000
   1     989.2        0.0000        0.0000        0.0000        0.0000       0.000000       0.00000
   0    1013.0        0.0000        0.0000        0.0000        0.0000       0.000000       0.00000



 Wavenumbers:   820. -  2600. cm-1, ATM      1
 LEVEL PRESSURE   UPWARD FLUX   DIFDOWN FLUX  DIRDOWN FLUX  DOWNWARD FLUX   NET FLUX    HEATING RATE
          mb          W/m2          W/m2          W/m2        W/m2          W/m2       degree/day
  60   .000300        0.9728        0.0000        8.1430        8.1430       7.170193       0.00000
  59    0.1000        0.9728        0.0000        8.1331        8.1331       7.160306       0.83688
  58    0.1403        0.9728        0.0000        8.1309        8.1309       7.158167       0.44787
  57    0.1968        0.9728        0.0000        8.1281        8.1281       7.155327       0.42423
  56    0.2760        0.9728        0.0000        8.1245        8.1245       7.151760       0.38013
  55    0.3871        0.9728        0.0000        8.1201        8.1201       7.147298       0.33888
  54    0.5430        0.9728        0.0000        8.1143        8.1143       7.141542       0.31160
  53    0.7617        0.9728        0.0000        8.1063        8.1063       7.133555       0.30818
  52     1.069        0.9728        0.0000        8.0951        8.0951       7.122306       0.30943
  51     1.499        0.9728        0.0000        8.0799        8.0799       7.107115       0.29793
  50     2.102        0.9728        0.0000        8.0595        8.0595       7.086703       0.28540
  49     2.949        0.9728        0.0000        8.0314        8.0314       7.058561       0.28052
  48     4.137        0.9728        0.0000        7.9935        7.9935       7.020710       0.26897
  47     5.803        0.9728        0.0000        7.9444        7.9444       6.971582       0.24887
  46     8.139        0.9728        0.0000        7.8811        7.8811       6.908296       0.22856
  45     11.42        0.9728        0.0000        7.8004        7.8004       6.827558       0.20787
  44     16.01        0.9729        0.0000        7.7070        7.7070       6.734184       0.17139
  43     22.46        0.9729        0.0000        7.6181        7.6181       6.645183       0.11646
  42     31.51        0.9729        0.0000        7.5468        7.5468       6.573867       0.06653
  41     44.20        0.9730        0.0000        7.4816        7.4816       6.508612       0.04340
  40     62.00        0.9731        0.0000        7.3998        7.3998       6.426699       0.03884
  39     85.78        0.9733        0.0000        7.2958        7.2958       6.322528       0.03698
  38     109.5        0.9734        0.0000        7.1946        7.1946       6.221202       0.03597
  37     133.1        0.9736        0.0000        7.1003        7.1003       6.126683       0.03394
  36     156.8        0.9738        0.0000        7.0126        7.0126       6.038886       0.03113
  35     180.6        0.9739        0.0000        6.9166        6.9166       5.942651       0.03417
  34     202.8        0.9742        0.0000        6.8041        6.8042       5.829989       0.04278
  33     228.4        0.9745        0.0000        6.6630        6.6630       5.688548       0.04667
  32     252.2        0.9749        0.0000        6.4917        6.4917       5.516826       0.06095
  31     276.0        0.9753        0.0000        6.3090        6.3091       5.333739       0.06499
  30     299.8        0.9760        0.0000        6.1153        6.1153       5.139286       0.06902
  29     323.5        0.9770        0.0000        5.9197        5.9197       4.942748       0.06976
  28     347.3        0.9782        0.0000        5.7036        5.7036       4.725380       0.07716
  27     371.1        0.9797        0.0000        5.4648        5.4649       4.485129       0.08528
  26     394.9        0.9816        0.0000        5.2059        5.2060       4.224399       0.09255
  25     418.6        0.9838        0.0000        4.9521        4.9521       3.968340       0.09089
  24     442.4        0.9863        0.0000        4.7233        4.7234       3.737051       0.08210
  23     466.2        0.9891        0.0000        4.5370        4.5370       3.547896       0.06714
  22     489.9        0.9924        0.0000        4.3924        4.3925       3.400092       0.05246
  21     513.7        0.9963        0.0000        4.2764        4.2764       3.280134       0.04258
  20     537.5        1.0009        0.0000        4.1775        4.1776       3.176666       0.03673
  19     561.3        1.0063        0.0000        4.0839        4.0840       3.077670       0.03514
  18     585.0        1.0127        0.0000        3.9882        3.9883       2.975580       0.03624
  17     608.8        1.0201        0.0000        3.8907        3.8907       2.870675       0.03724
  16     632.6        1.0286        0.0000        3.7911        3.7912       2.762556       0.03838
  15     656.4        1.0389        0.0000        3.6867        3.6868       2.647883       0.04070
  14     680.1        1.0512        0.0000        3.5795        3.5795       2.528298       0.04245
  13     703.9        1.0661        0.0000        3.4709        3.4710       2.404894       0.04380
  12     727.7        1.0847        0.0000        3.3598        3.3599       2.275216       0.04603
  11     751.5        1.1089        0.0000        3.2443        3.2443       2.135493       0.04960
  10     775.2        1.1404        0.0000        3.1256        3.1256       1.985249       0.05333
   9     799.0        1.1821        0.0000        3.0033        3.0033       1.821188       0.05823
   8     822.8        0.8633        0.6030        1.9177        2.5207       1.657380       0.05815
   7     846.6        0.5743        0.8716        1.2246        2.0962       1.521923       0.04808
   6     870.4        0.3051        0.9366        0.7819        1.7185       1.413462       0.03850
   5     894.1        0.0469        0.8788        0.4988        1.3776       1.330710       0.02937
   4     917.9        0.0488        0.8330        0.4766        1.3096       1.260824       0.02481
   3     941.7        0.0510        0.7874        0.4542        1.2416       1.190556       0.02494
   2     965.5        0.0536        0.7420        0.4317        1.1737       1.120129       0.02500
   1     989.2        0.0567        0.6972        0.4092        1.1064       1.049745       0.02498
   0    1013.0        0.0604        0.6532        0.3868        1.0400       0.979635       0.02489

  Modules and versions used in this calculation:

       rrtmg_sw.1col.f90:  $Revision$                    rrtmg_sw_init.f90:  $Revision$        
     rrtmgsw_cldprop.f90:  $Revision$                  rrtmgsw_cldprmc.f90:  NOT USED          
     rrtmg_sw_reftra.f90:  $Revision$                  rrtmg_sw_spcvrt.f90:  NOT USED          
     rrtmg_sw_spcvmc.f90:  NOT USED                    rrtmgsw_setcoef.f90:  NOT USED          
     rrtmg_sw_taumol.f90:  $Revision$                  rrtmg_sw_vrtqdr.f90:  NOT USED          
                rrtatm.f:  NOT USED                             util_xxx.f:  NOT USED          
                 extra.f:  NOT USED                       rrtmg_sw_k_g.f90:  $Revision$        

