

 Wavenumbers:   820. - 50000. cm-1, ATM      1
 LEVEL PRESSURE   UPWARD FLUX   DIFDOWN FLUX  DIRDOWN FLUX  DOWNWARD FLUX   NET FLUX    HEATING RATE
          mb          W/m2          W/m2          W/m2        W/m2          W/m2       degree/day
  60   .000300      205.0459        0.0000      837.8224      837.8224     632.776462       0.00000
  59    0.1000      205.0403        0.0106      837.7137      837.7242     632.683885       7.83623
  58    0.1403      205.0383        0.0148      837.6563      837.6711     632.632826      10.69225
  57    0.1968      205.0356        0.0208      837.5614      837.5822     632.546546      12.88730
  56    0.2760      205.0322        0.0290      837.4070      837.4361     632.403925      15.19696
  55    0.3871      205.0277        0.0406      837.1641      837.2047     632.176975      17.23905
  54    0.5430      205.0221        0.0565      836.7876      836.8441     631.822023      19.21419
  53    0.7617      205.0157        0.0782      836.1942      836.2724     631.256708      21.81424
  52     1.069      205.0093        0.1080      835.2926      835.4006     630.391336      23.80379
  51     1.499      205.0051        0.1480      834.0471      834.1951     629.189973      23.56141
  50     2.102      205.0082        0.2017      832.4995      832.7012     627.693003      20.92967
  49     2.949      205.0285        0.2767      830.7483      831.0250     625.996515      16.91107
  48     4.137      205.0778        0.3808      828.8944      829.2752     624.197380      12.78474
  47     5.803      205.1622        0.5251      826.9459      827.4710     622.308778       9.56731
  46     8.139      205.2772        0.7257      824.8978      825.6236     620.346362       7.08739
  45     11.42      205.4104        1.0047      822.7006      823.7053     618.294934       5.28168
  44     16.01      205.5524        1.3919      820.2525      821.6443     616.091904       4.04369
  43     22.46      205.6914        1.9298      817.4463      819.3761     613.684762       3.14983
  42     31.51      205.7787        2.6773      814.2518      816.9290     611.150370       2.36424
  41     44.20      205.7215        3.7176      810.6480      814.3656     608.644094       1.66677
  40     62.00      205.4495        5.1516      806.4553      811.6070     606.157452       1.17895
  39     85.78      204.8367        7.0405      801.7674      808.8079     603.971151       0.77605
  38     109.5      204.0810        8.9303      797.4817      806.4120     602.331047       0.58217
  37     133.1      203.3180       10.7158      793.5510      804.2668     600.948815       0.49638
  36     156.8      202.5570       12.4218      789.8548      802.2766     599.719565       0.43589
  35     180.6      201.7224       14.2043      786.0084      800.2127     598.490337       0.43640
  34     202.8      200.8933       15.8922      782.2124      798.1045     597.211265       0.48564
  33     228.4      200.0357       17.5841      778.0467      795.6308     595.595068       0.53324
  32     252.2      199.1697       19.2508      773.4741      792.7249     593.555244       0.72405
  31     276.0      198.3081       20.8697      768.4389      789.3086     591.000523       0.90682
  30     299.8      197.4368       22.4731      762.7642      785.2373     587.800458       1.13589
  29     323.5      196.5653       24.0514      756.6288      780.6802     584.114862       1.30823
  28     347.3      195.7049       25.5882      750.2254      775.8136     580.108693       1.42202
  27     371.1      194.8594       27.0792      743.7251      770.8043     575.944878       1.47798
  26     394.9      194.0079       28.5646      736.8957      765.4603     571.452376       1.59465
  25     418.6      193.1664       30.0200      729.8721      759.8921     566.725697       1.67778
  24     442.4      192.3356       31.4483      722.6783      754.1266     561.790968       1.75163
  23     466.2      191.5137       32.8547      715.4381      748.2928     556.779109       1.77900
  22     489.9      190.7144       34.2206      708.2772      742.4978     551.783351       1.77329
  21     513.7      189.9274       35.5699      701.0441      736.6140     546.686563       1.80915
  20     537.5      189.1687       36.8826      693.8325      730.7150     541.546330       1.82457
  19     561.3      188.4408       38.1615      686.6319      724.7934     536.352628       1.84355
  18     585.0      187.7303       39.4347      679.3701      718.8048     531.074530       1.87351
  17     608.8      187.0569       40.6725      672.2525      712.9250     525.868144       1.84805
  16     632.6      186.4250       41.8762      665.2624      707.1386     520.713547       1.82967
  15     656.4      185.8320       43.0706      658.1915      701.2621     515.430065       1.87542
  14     680.1      185.3040       44.2317      651.1209      695.3527     510.048710       1.91016
  13     703.9      184.8534       45.3605      644.0582      689.4187     504.565287       1.94639
  12     727.7      184.4941       46.4741      636.8758      683.3499     498.855871       2.02661
  11     751.5      184.2635       47.5716      629.4911      677.0627     492.799219       2.14986
  10     775.2      184.2075       48.6395      621.9804      670.6198     486.412268       2.26710
   9     799.0      184.3865       49.6779      614.3441      664.0220     479.635477       2.40548
   8     822.8      145.4070      102.5805      515.6650      618.2455     472.838546       2.41263
   7     846.6      107.2135      141.0726      432.9865      574.0591     466.845564       2.12726
   6     870.4       69.6400      167.6138      363.6919      531.3057     461.665657       1.83865
   5     894.1       32.5247      184.2091      305.5785      489.7876     457.262914       1.56279
   4     917.9       31.7761      182.9932      302.0679      485.0612     453.285085       1.41197
   3     941.7       31.0390      181.8134      298.6253      480.4388     449.399737       1.37914
   2     965.5       30.3218      180.6710      295.2691      475.9401     445.618246       1.34227
   1     989.2       29.6277      179.5616      291.9966      471.5581     441.930445       1.30874
   0    1013.0       28.9613      178.4811      288.8006      467.2817     438.320482       1.28166



 Wavenumbers:  2600. -  3250. cm-1, ATM      1
 LEVEL PRESSURE   UPWARD FLUX   DIFDOWN FLUX  DIRDOWN FLUX  DOWNWARD FLUX   NET FLUX    HEATING RATE
          mb          W/m2          W/m2          W/m2        W/m2          W/m2       degree/day
  60   .000300        0.7452        0.0000        7.3841        7.3841       6.638910       0.00000
  59    0.1000        0.7452        0.0000        7.3840        7.3840       6.638838       0.00613
  58    0.1403        0.7452        0.0000        7.3840        7.3840       6.638808       0.00614
  57    0.1968        0.7452        0.0000        7.3839        7.3839       6.638767       0.00616
  56    0.2760        0.7452        0.0000        7.3839        7.3839       6.638710       0.00613
  55    0.3871        0.7452        0.0000        7.3838        7.3838       6.638625       0.00641
  54    0.5430        0.7452        0.0000        7.3837        7.3837       6.638500       0.00678
  53    0.7617        0.7452        0.0000        7.3835        7.3835       6.638303       0.00761
  52     1.069        0.7452        0.0000        7.3831        7.3831       6.637973       0.00908
  51     1.499        0.7452        0.0000        7.3825        7.3825       6.637364       0.01193
  50     2.102        0.7452        0.0000        7.3814        7.3814       6.636275       0.01522
  49     2.949        0.7452        0.0000        7.3795        7.3795       6.634390       0.01880
  48     4.137        0.7452        0.0000        7.3765        7.3765       6.631376       0.02142
  47     5.803        0.7452        0.0000        7.3721        7.3721       6.626945       0.02245
  46     8.139        0.7452        0.0000        7.3661        7.3661       6.620937       0.02170
  45     11.42        0.7452        0.0000        7.3586        7.3586       6.613431       0.01933
  44     16.01        0.7452        0.0000        7.3500        7.3500       6.604856       0.01574
  43     22.46        0.7452        0.0000        7.3407        7.3407       6.595540       0.01219
  42     31.51        0.7452        0.0000        7.3297        7.3297       6.584576       0.01023
  41     44.20        0.7452        0.0000        7.3134        7.3134       6.568224       0.01087
  40     62.00        0.7452        0.0000        7.2860        7.2860       6.540816       0.01299
  39     85.78        0.7453        0.0000        7.2438        7.2439       6.498620       0.01498
  38     109.5        0.7453        0.0000        7.1969        7.1969       6.451616       0.01668
  37     133.1        0.7454        0.0001        7.1517        7.1518       6.406372       0.01625
  36     156.8        0.7455        0.0001        7.1092        7.1093       6.363768       0.01511
  35     180.6        0.7457        0.0001        7.0662        7.0663       6.320612       0.01532
  34     202.8        0.7458        0.0001        7.0262        7.0262       6.280416       0.01526
  33     228.4        0.7461        0.0001        6.9846        6.9847       6.238649       0.01378
  32     252.2        0.7464        0.0001        6.9407        6.9408       6.194362       0.01572
  31     276.0        0.7469        0.0001        6.8941        6.8942       6.147365       0.01668
  30     299.8        0.7475        0.0001        6.8424        6.8426       6.095090       0.01856
  29     323.5        0.7482        0.0001        6.7849        6.7850       6.036803       0.02069
  28     347.3        0.7492        0.0001        6.7206        6.7207       5.971518       0.02317
  27     371.1        0.7504        0.0001        6.6496        6.6497       5.899302       0.02563
  26     394.9        0.7519        0.0001        6.5676        6.5677       5.815851       0.02962
  25     418.6        0.7536        0.0001        6.4741        6.4743       5.720634       0.03380
  24     442.4        0.7558        0.0002        6.3671        6.3673       5.611533       0.03873
  23     466.2        0.7583        0.0002        6.2486        6.2487       5.490447       0.04298
  22     489.9        0.7612        0.0002        6.1205        6.1206       5.359450       0.04650
  21     513.7        0.7647        0.0002        5.9812        5.9814       5.216678       0.05068
  20     537.5        0.7688        0.0002        5.8338        5.8340       5.065191       0.05377
  19     561.3        0.7737        0.0002        5.6819        5.6821       4.908403       0.05565
  18     585.0        0.7793        0.0002        5.5274        5.5276       4.748273       0.05684
  17     608.8        0.7858        0.0002        5.3761        5.3762       4.590408       0.05604
  16     632.6        0.7933        0.0002        5.2281        5.2283       4.434985       0.05517
  15     656.4        0.8021        0.0002        5.0791        5.0793       4.277132       0.05603
  14     680.1        0.8126        0.0002        4.9299        4.9301       4.117441       0.05668
  13     703.9        0.8251        0.0002        4.7798        4.7800       3.954866       0.05771
  12     727.7        0.8404        0.0002        4.6253        4.6255       3.785086       0.06026
  11     751.5        0.8596        0.0002        4.4633        4.4635       3.603873       0.06432
  10     775.2        0.8838        0.0002        4.2949        4.2950       3.411204       0.06839
   9     799.0        0.9150        0.0002        4.1205        4.1207       3.205710       0.07294
   8     822.8        0.6922        0.3396        3.3515        3.6911       2.998959       0.07339
   7     846.6        0.4801        0.5712        2.7265        3.2977       2.817641       0.06436
   6     870.4        0.2756        0.7184        2.2197        2.9381       2.662529       0.05506
   5     894.1        0.0754        0.7997        1.8084        2.6081       2.532706       0.04608
   4     917.9        0.0775        0.7618        1.7337        2.4955       2.417933       0.04074
   3     941.7        0.0800        0.7262        1.6620        2.3882       2.308225       0.03894
   2     965.5        0.0829        0.6927        1.5937        2.2864       2.203501       0.03717
   1     989.2        0.0863        0.6611        1.5287        2.1898       2.103496       0.03549
   0    1013.0        0.0903        0.6311        1.4665        2.0976       2.007225       0.03418



 Wavenumbers:  3250. -  4000. cm-1, ATM      1
 LEVEL PRESSURE   UPWARD FLUX   DIFDOWN FLUX  DIRDOWN FLUX  DOWNWARD FLUX   NET FLUX    HEATING RATE
          mb          W/m2          W/m2          W/m2        W/m2          W/m2       degree/day
  60   .000300        0.0075        0.0000       12.4485       12.4485      12.440950       0.00000
  59    0.1000        0.0075        0.0000       12.4290       12.4290      12.421448       1.65079
  58    0.1403        0.0075        0.0000       12.4252       12.4252      12.417734       0.77776
  57    0.1968        0.0075        0.0000       12.4208       12.4208      12.413261       0.66803
  56    0.2760        0.0075        0.0000       12.4156       12.4156      12.408098       0.55013
  55    0.3871        0.0075        0.0000       12.4096       12.4096      12.402066       0.45825
  54    0.5430        0.0075        0.0000       12.4022       12.4022      12.394737       0.39669
  53    0.7617        0.0075        0.0000       12.3928       12.3928      12.385277       0.36506
  52     1.069        0.0075        0.0000       12.3807       12.3807      12.373237       0.33119
  51     1.499        0.0075        0.0000       12.3664       12.3664      12.358879       0.28159
  50     2.102        0.0075        0.0000       12.3498       12.3498      12.342246       0.23256
  49     2.949        0.0075        0.0000       12.3302       12.3302      12.322711       0.19473
  48     4.137        0.0075        0.0000       12.3067       12.3068      12.299245       0.16675
  47     5.803        0.0075        0.0000       12.2766       12.2766      12.269128       0.15257
  46     8.139        0.0075        0.0000       12.2347       12.2348      12.227260       0.15121
  45     11.42        0.0075        0.0000       12.1733       12.1733      12.165846       0.15812
  44     16.01        0.0075        0.0000       12.0830       12.0830      12.075535       0.16577
  43     22.46        0.0075        0.0000       11.9527       11.9527      11.945245       0.17049
  42     31.51        0.0075        0.0000       11.7748       11.7748      11.767360       0.16594
  41     44.20        0.0075        0.0001       11.5551       11.5552      11.547723       0.14607
  40     62.00        0.0074        0.0001       11.3050       11.3051      11.297655       0.11856
  39     85.78        0.0074        0.0001       11.0142       11.0143      11.006868       0.10322
  38     109.5        0.0074        0.0001       10.7175       10.7176      10.710247       0.10529
  37     133.1        0.0073        0.0002       10.4459       10.4460      10.438701       0.09752
  36     156.8        0.0073        0.0002       10.1944       10.1946      10.187313       0.08914
  35     180.6        0.0073        0.0002        9.9218        9.9220       9.914754       0.09676
  34     202.8        0.0073        0.0002        9.5970        9.5973       9.589984       0.12331
  33     228.4        0.0072        0.0002        9.1820        9.1823       9.175046       0.13690
  32     252.2        0.0072        0.0003        8.7004        8.7006       8.693403       0.17096
  31     276.0        0.0072        0.0003        8.1693        8.1695       8.162325       0.18851
  30     299.8        0.0072        0.0003        7.5886        7.5889       7.581665       0.20611
  29     323.5        0.0072        0.0003        6.9823        6.9825       6.975322       0.21523
  28     347.3        0.0072        0.0003        6.3629        6.3631       6.355888       0.21987
  27     371.1        0.0072        0.0002        5.7699        5.7701       5.762882       0.21049
  26     394.9        0.0073        0.0002        5.2041        5.2043       5.196998       0.20087
  25     418.6        0.0074        0.0002        4.6962        4.6964       4.689020       0.18031
  24     442.4        0.0075        0.0002        4.2409        4.2411       4.233655       0.16164
  23     466.2        0.0076        0.0002        3.8328        3.8330       3.825372       0.14492
  22     489.9        0.0078        0.0002        3.4648        3.4650       3.457277       0.13066
  21     513.7        0.0080        0.0002        3.1218        3.1220       3.114000       0.12185
  20     537.5        0.0083        0.0002        2.8040        2.8042       2.795887       0.11292
  19     561.3        0.0087        0.0002        2.5083        2.5084       2.499738       0.10512
  18     585.0        0.0092        0.0001        2.2301        2.2302       2.221033       0.09893
  17     608.8        0.0098        0.0001        1.9731        1.9732       1.963363       0.09146
  16     632.6        0.0107        0.0001        1.7337        1.7338       1.723174       0.08526
  15     656.4        0.0118        0.0001        1.5041        1.5042       1.492437       0.08190
  14     680.1        0.0133        0.0001        1.2888        1.2888       1.275565       0.07698
  13     703.9        0.0153        0.0001        1.0908        1.0909       1.075516       0.07101
  12     727.7        0.0183        0.0001        0.9082        0.9083       0.889992       0.06585
  11     751.5        0.0226        0.0001        0.7390        0.7391       0.716429       0.06161
  10     775.2        0.0294        0.0000        0.5856        0.5857       0.556272       0.05685
   9     799.0        0.0403        0.0000        0.4484        0.4484       0.408114       0.05259
   8     822.8        0.0247        0.0250        0.2798        0.3048       0.280132       0.04543
   7     846.6        0.0139        0.0305        0.1699        0.2004       0.186520       0.03323
   6     870.4        0.0062        0.0266        0.1003        0.1269       0.120740       0.02335
   5     894.1        0.0000        0.0216        0.0573        0.0790       0.078988       0.01482
   4     917.9        0.0000        0.0126        0.0370        0.0497       0.049674       0.01041
   3     941.7        0.0000        0.0070        0.0229        0.0298       0.029803       0.00705
   2     965.5        0.0000        0.0036        0.0135        0.0171       0.017049       0.00453
   1     989.2        0.0001        0.0018        0.0075        0.0093       0.009244       0.00277
   0    1013.0        0.0002        0.0008        0.0040        0.0048       0.004649       0.00163



 Wavenumbers:  4000. -  4650. cm-1, ATM      1
 LEVEL PRESSURE   UPWARD FLUX   DIFDOWN FLUX  DIRDOWN FLUX  DOWNWARD FLUX   NET FLUX    HEATING RATE
          mb          W/m2          W/m2          W/m2        W/m2          W/m2       degree/day
  60   .000300        2.5693        0.0000       14.6183       14.6183      12.048918       0.00000
  59    0.1000        2.5693        0.0000       14.6182       14.6182      12.048909       0.00076
  58    0.1403        2.5693        0.0000       14.6182       14.6182      12.048906       0.00076
  57    0.1968        2.5693        0.0000       14.6182       14.6182      12.048901       0.00077
  56    0.2760        2.5693        0.0000       14.6182       14.6182      12.048893       0.00076
  55    0.3871        2.5693        0.0000       14.6182       14.6182      12.048883       0.00080
  54    0.5430        2.5693        0.0000       14.6182       14.6182      12.048867       0.00085
  53    0.7617        2.5693        0.0000       14.6182       14.6182      12.048843       0.00095
  52     1.069        2.5693        0.0000       14.6181       14.6181      12.048801       0.00114
  51     1.499        2.5693        0.0000       14.6180       14.6181      12.048724       0.00152
  50     2.102        2.5693        0.0000       14.6179       14.6179      12.048583       0.00197
  49     2.949        2.5693        0.0000       14.6176       14.6177      12.048330       0.00252
  48     4.137        2.5693        0.0000       14.6172       14.6172      12.047901       0.00305
  47     5.803        2.5693        0.0000       14.6165       14.6165      12.047209       0.00351
  46     8.139        2.5693        0.0000       14.6154       14.6154      12.046126       0.00391
  45     11.42        2.5693        0.0000       14.6137       14.6138      12.044457       0.00430
  44     16.01        2.5693        0.0001       14.6112       14.6112      12.041927       0.00464
  43     22.46        2.5693        0.0001       14.6074       14.6074      12.038153       0.00494
  42     31.51        2.5693        0.0001       14.6017       14.6018      12.032508       0.00527
  41     44.20        2.5693        0.0002       14.5927       14.5929      12.023590       0.00593
  40     62.00        2.5693        0.0003       14.5788       14.5791      12.009740       0.00657
  39     85.78        2.5694        0.0004       14.5592       14.5596      11.990186       0.00694
  38     109.5        2.5696        0.0004       14.5382       14.5386      11.969038       0.00751
  37     133.1        2.5698        0.0005       14.5177       14.5183      11.948474       0.00738
  36     156.8        2.5700        0.0006       14.4977       14.4983      11.928267       0.00717
  35     180.6        2.5704        0.0007       14.4759       14.4766      11.906259       0.00781
  34     202.8        2.5708        0.0008       14.4536       14.4544      11.883658       0.00858
  33     228.4        2.5714        0.0009       14.4280       14.4290      11.857607       0.00860
  32     252.2        2.5721        0.0010       14.3983       14.3993      11.827238       0.01078
  31     276.0        2.5731        0.0011       14.3635       14.3647      11.791594       0.01265
  30     299.8        2.5743        0.0012       14.3217       14.3229      11.748576       0.01527
  29     323.5        2.5759        0.0013       14.2720       14.2733      11.697423       0.01816
  28     347.3        2.5779        0.0014       14.2129       14.2143      11.636417       0.02165
  27     371.1        2.5801        0.0015       14.1438       14.1452      11.565137       0.02530
  26     394.9        2.5826        0.0016       14.0605       14.0620      11.479405       0.03043
  25     418.6        2.5854        0.0016       13.9639       13.9656      11.380134       0.03524
  24     442.4        2.5887        0.0017       13.8548       13.8565      11.267841       0.03986
  23     466.2        2.5923        0.0018       13.7365       13.7383      11.146038       0.04323
  22     489.9        2.5963        0.0019       13.6136       13.6155      11.019167       0.04503
  21     513.7        2.6010        0.0019       13.4859       13.4879      10.886857       0.04696
  20     537.5        2.6064        0.0020       13.3568       13.3588      10.752350       0.04774
  19     561.3        2.6127        0.0021       13.2261       13.2282      10.615503       0.04857
  18     585.0        2.6200        0.0022       13.0915       13.0937      10.473653       0.05035
  17     608.8        2.6284        0.0022       12.9542       12.9564      10.328036       0.05169
  16     632.6        2.6380        0.0023       12.8109       12.8132      10.175229       0.05424
  15     656.4        2.6494        0.0023       12.6541       12.6564      10.007032       0.05970
  14     680.1        2.6630        0.0024       12.4832       12.4856       9.822668       0.06544
  13     703.9        2.6792        0.0024       12.2977       12.3001       9.620971       0.07159
  12     727.7        2.6991        0.0025       12.0950       12.0975       9.398324       0.07903
  11     751.5        2.7245        0.0025       11.8732       11.8757       9.151284       0.08769
  10     775.2        2.7568        0.0025       11.6374       11.6399       8.883111       0.09519
   9     799.0        2.7992        0.0026       11.3910       11.3936       8.594418       0.10247
   8     822.8        2.1463        0.9806        9.4698       10.4504       8.304044       0.10307
   7     846.6        1.5135        1.6856        7.8797        9.5652       8.051693       0.08957
   6     870.4        0.8959        2.1697        6.5629        8.7327       7.836834       0.07627
   5     894.1        0.2878        2.4740        5.4704        7.9445       7.656647       0.06396
   4     917.9        0.2913        2.4210        5.3662        7.7872       7.495899       0.05706
   3     941.7        0.2953        2.3699        5.2648        7.6347       7.339441       0.05554
   2     965.5        0.2999        2.3203        5.1661        7.4863       7.186445       0.05431
   1     989.2        0.3053        2.2718        5.0695        7.3413       7.035983       0.05340
   0    1013.0        0.3117        2.2243        4.9740        7.1982       6.886558       0.05305



 Wavenumbers:  4650. -  5150. cm-1, ATM      1
 LEVEL PRESSURE   UPWARD FLUX   DIFDOWN FLUX  DIRDOWN FLUX  DOWNWARD FLUX   NET FLUX    HEATING RATE
          mb          W/m2          W/m2          W/m2        W/m2          W/m2       degree/day
  60   .000300        1.8844        0.0000       13.8369       13.8369      11.952490       0.00000
  59    0.1000        1.8844        0.0000       13.8347       13.8347      11.950372       0.17928
  58    0.1403        1.8844        0.0000       13.8339       13.8339      11.949533       0.17564
  57    0.1968        1.8844        0.0000       13.8327       13.8327      11.948368       0.17409
  56    0.2760        1.8844        0.0000       13.8312       13.8312      11.946778       0.16936
  55    0.3871        1.8844        0.0000       13.8290       13.8290      11.944598       0.16558
  54    0.5430        1.8844        0.0000       13.8260       13.8260      11.941663       0.15891
  53    0.7617        1.8844        0.0000       13.8221       13.8221      11.937759       0.15065
  52     1.069        1.8844        0.0000       13.8170       13.8170      11.932606       0.14174
  51     1.499        1.8844        0.0000       13.8105       13.8105      11.926122       0.12716
  50     2.102        1.8844        0.0000       13.8026       13.8026      11.918251       0.11005
  49     2.949        1.8844        0.0000       13.7933       13.7933      11.908953       0.09269
  48     4.137        1.8844        0.0000       13.7830       13.7831      11.898710       0.07279
  47     5.803        1.8844        0.0000       13.7724       13.7724      11.888062       0.05394
  46     8.139        1.8844        0.0001       13.7615       13.7616      11.877234       0.03910
  45     11.42        1.8843        0.0001       13.7497       13.7498      11.865463       0.03031
  44     16.01        1.8843        0.0001       13.7347       13.7348      11.850433       0.02759
  43     22.46        1.8844        0.0001       13.7122       13.7123      11.827939       0.02943
  42     31.51        1.8844        0.0002       13.6758       13.6760      11.791624       0.03388
  41     44.20        1.8845        0.0003       13.6167       13.6170      11.732513       0.03931
  40     62.00        1.8847        0.0004       13.5244       13.5248      11.640125       0.04380
  39     85.78        1.8850        0.0005       13.3944       13.3950      11.509949       0.04621
  38     109.5        1.8855        0.0007       13.2650       13.2657      11.380221       0.04605
  37     133.1        1.8860        0.0008       13.1487       13.1495      11.263487       0.04192
  36     156.8        1.8867        0.0009       13.0449       13.0458      11.159047       0.03703
  35     180.6        1.8876        0.0010       12.9437       12.9447      11.057111       0.03619
  34     202.8        1.8886        0.0012       12.8534       12.8546      10.965993       0.03460
  33     228.4        1.8898        0.0013       12.7658       12.7671      10.877274       0.02927
  32     252.2        1.8913        0.0014       12.6801       12.6816      10.790316       0.03087
  31     276.0        1.8930        0.0016       12.5950       12.5966      10.703611       0.03078
  30     299.8        1.8951        0.0017       12.5053       12.5070      10.611868       0.03256
  29     323.5        1.8977        0.0018       12.4093       12.4111      10.513354       0.03497
  28     347.3        1.9008        0.0019       12.3075       12.3094      10.408635       0.03717
  27     371.1        1.9043        0.0020       12.1993       12.2013      10.297059       0.03961
  26     394.9        1.9084        0.0021       12.0815       12.0837      10.175279       0.04323
  25     418.6        1.9131        0.0022       11.9549       11.9571      10.043974       0.04661
  24     442.4        1.9185        0.0023       11.8185       11.8209       9.902344       0.05027
  23     466.2        1.9247        0.0024       11.6730       11.6754       9.750752       0.05381
  22     489.9        1.9316        0.0025       11.5203       11.5228       9.591211       0.05663
  21     513.7        1.9395        0.0026       11.3577       11.3603       9.420795       0.06049
  20     537.5        1.9484        0.0027       11.1878       11.1905       9.242158       0.06341
  19     561.3        1.9584        0.0028       11.0105       11.0133       9.054836       0.06649
  18     585.0        1.9699        0.0028       10.8249       10.8277       8.857814       0.06993
  17     608.8        1.9827        0.0029       10.6366       10.6395       8.656795       0.07135
  16     632.6        1.9971        0.0030       10.4463       10.4493       8.452240       0.07261
  15     656.4        2.0137        0.0030       10.2497       10.2527       8.239059       0.07567
  14     680.1        2.0325        0.0031       10.0509       10.0540       8.021501       0.07722
  13     703.9        2.0541        0.0031        9.8514        9.8545       7.800479       0.07845
  12     727.7        2.0792        0.0032        9.6483        9.6515       7.572297       0.08100
  11     751.5        2.1092        0.0032        9.4402        9.4434       7.334250       0.08450
  10     775.2        2.1450        0.0033        9.2294        9.2327       7.087695       0.08752
   9     799.0        2.1882        0.0033        9.0169        9.0202       6.831987       0.09077
   8     822.8        1.6773        0.7749        7.4875        8.2623       6.585036       0.08766
   7     846.6        1.1813        1.3252        6.2214        7.5466       6.365389       0.07797
   6     870.4        0.6966        1.7035        5.1730        6.8765       6.179935       0.06583
   5     894.1        0.2190        1.9383        4.3028        6.2411       6.022176       0.05600
   4     917.9        0.2224        1.8908        4.2111        6.1019       5.879451       0.05066
   3     941.7        0.2264        1.8446        4.1215        5.9661       5.739746       0.04959
   2     965.5        0.2308        1.8000        4.0342        5.8342       5.603409       0.04839
   1     989.2        0.2357        1.7569        3.9489        5.7058       5.470027       0.04734
   0    1013.0        0.2414        1.7152        3.8656        5.5807       5.339370       0.04639



 Wavenumbers:  5150. -  6150. cm-1, ATM      1
 LEVEL PRESSURE   UPWARD FLUX   DIFDOWN FLUX  DIRDOWN FLUX  DOWNWARD FLUX   NET FLUX    HEATING RATE
          mb          W/m2          W/m2          W/m2        W/m2          W/m2       degree/day
  60   .000300        4.4254        0.0000       34.6891       34.6891      30.263683       0.00000
  59    0.1000        4.4254        0.0000       34.6886       34.6886      30.263187       0.04200
  58    0.1403        4.4254        0.0000       34.6884       34.6884      30.262987       0.04192
  57    0.1968        4.4254        0.0000       34.6881       34.6881      30.262705       0.04209
  56    0.2760        4.4254        0.0000       34.6877       34.6877      30.262314       0.04166
  55    0.3871        4.4254        0.0000       34.6871       34.6871      30.261765       0.04175
  54    0.5430        4.4254        0.0000       34.6864       34.6864      30.260999       0.04146
  53    0.7617        4.4254        0.0000       34.6853       34.6853      30.259929       0.04126
  52     1.069        4.4254        0.0000       34.6838       34.6838      30.258423       0.04144
  51     1.499        4.4254        0.0000       34.6817       34.6817      30.256332       0.04100
  50     2.102        4.4254        0.0001       34.6787       34.6788      30.253443       0.04040
  49     2.949        4.4253        0.0001       34.6746       34.6747      30.249363       0.04067
  48     4.137        4.4253        0.0001       34.6689       34.6690      30.243688       0.04033
  47     5.803        4.4253        0.0002       34.6610       34.6612      30.235864       0.03964
  46     8.139        4.4253        0.0002       34.6502       34.6504      30.225143       0.03872
  45     11.42        4.4253        0.0003       34.6356       34.6359      30.210587       0.03748
  44     16.01        4.4253        0.0004       34.6159       34.6163      30.191074       0.03582
  43     22.46        4.4252        0.0006       34.5899       34.5905      30.165296       0.03373
  42     31.51        4.4252        0.0009       34.5564       34.5572      30.132011       0.03105
  41     44.20        4.4253        0.0012       34.5139       34.5152      30.089907       0.02800
  40     62.00        4.4253        0.0017       34.4619       34.4636      30.038243       0.02450
  39     85.78        4.4255        0.0024       34.4020       34.4044      29.978855       0.02108
  38     109.5        4.4257        0.0030       34.3491       34.3521      29.926435       0.01861
  37     133.1        4.4259        0.0037       34.3031       34.3068      29.880862       0.01637
  36     156.8        4.4261        0.0043       34.2595       34.2638      29.837629       0.01533
  35     180.6        4.4264        0.0049       34.2031       34.2080      29.781603       0.01989
  34     202.8        4.4267        0.0055       34.1091       34.1147      29.688043       0.03552
  33     228.4        4.4270        0.0062       33.9252       33.9314      29.504420       0.06058
  32     252.2        4.4273        0.0067       33.6087       33.6154      29.188075       0.11229
  31     276.0        4.4278        0.0073       33.1225       33.1298      28.702044       0.17252
  30     299.8        4.4283        0.0078       32.4763       32.4841      28.055766       0.22940
  29     323.5        4.4291        0.0082       31.7610       31.7692      27.340112       0.25403
  28     347.3        4.4300        0.0086       31.0137       31.0223      26.592314       0.26544
  27     371.1        4.4312        0.0090       30.2247       30.2337      25.802431       0.28038
  26     394.9        4.4327        0.0093       29.3520       29.3613      24.928522       0.31020
  25     418.6        4.4346        0.0096       28.4400       28.4496      24.014956       0.32428
  24     442.4        4.4369        0.0098       27.5194       27.5292      23.092284       0.32751
  23     466.2        4.4397        0.0100       26.6227       26.6328      22.193040       0.31919
  22     489.9        4.4431        0.0102       25.7669       25.7771      21.333966       0.30494
  21     513.7        4.4474        0.0104       24.9371       24.9475      20.500151       0.29597
  20     537.5        4.4525        0.0106       24.1537       24.1644      19.711814       0.27983
  19     561.3        4.4589        0.0108       23.4247       23.4355      18.976613       0.26097
  18     585.0        4.4667        0.0110       22.7500       22.7610      18.294251       0.24221
  17     608.8        4.4761        0.0112       22.1480       22.1592      17.683122       0.21693
  16     632.6        4.4873        0.0114       21.6116       21.6230      17.135712       0.19431
  15     656.4        4.5011        0.0116       21.1193       21.1309      16.629804       0.17958
  14     680.1        4.5182        0.0118       20.6722       20.6840      16.165801       0.16470
  13     703.9        4.5393        0.0120       20.2664       20.2784      15.739109       0.15146
  12     727.7        4.5659        0.0122       19.8884       19.9006      15.334687       0.14355
  11     751.5        4.6005        0.0124       19.5264       19.5389      14.938370       0.14068
  10     775.2        4.6454        0.0126       19.1765       19.1892      14.543719       0.14009
   9     799.0        4.7046        0.0128       18.8290       18.8418      14.137216       0.14429
   8     822.8        3.6163        1.6409       15.7070       17.3479      13.731598       0.14398
   7     846.6        2.5592        2.8236       13.1085       15.9321      13.372972       0.12730
   6     870.4        1.5252        3.6406       10.9452       14.5857      13.060513       0.11091
   5     894.1        0.5069        4.1586        9.1432       13.3017      12.794846       0.09430
   4     917.9        0.5101        4.0806        8.9871       13.0677      12.557585       0.08422
   3     941.7        0.5139        4.0074        8.8371       12.8445      12.330588       0.08057
   2     965.5        0.5186        3.9397        8.6950       12.6347      12.116098       0.07614
   1     989.2        0.5243        3.8775        8.5616       12.4391      11.914749       0.07146
   0    1013.0        0.5317        3.8204        8.4370       12.2574      11.725749       0.06710



 Wavenumbers:  6150. -  7700. cm-1, ATM      1
 LEVEL PRESSURE   UPWARD FLUX   DIFDOWN FLUX  DIRDOWN FLUX  DOWNWARD FLUX   NET FLUX    HEATING RATE
          mb          W/m2          W/m2          W/m2        W/m2          W/m2       degree/day
  60   .000300        6.9208        0.0000       64.1588       64.1588      57.237969       0.00000
  59    0.1000        6.9208        0.0000       64.1581       64.1581      57.237309       0.05584
  58    0.1403        6.9208        0.0000       64.1578       64.1578      57.237042       0.05593
  57    0.1968        6.9208        0.0000       64.1574       64.1574      57.236665       0.05625
  56    0.2760        6.9208        0.0000       64.1569       64.1569      57.236142       0.05580
  55    0.3871        6.9208        0.0000       64.1561       64.1562      57.235404       0.05604
  54    0.5430        6.9208        0.0001       64.1551       64.1551      57.234373       0.05578
  53    0.7617        6.9207        0.0001       64.1536       64.1537      57.232932       0.05562
  52     1.069        6.9207        0.0001       64.1515       64.1516      57.230900       0.05590
  51     1.499        6.9207        0.0002       64.1486       64.1487      57.228083       0.05524
  50     2.102        6.9206        0.0002       64.1446       64.1448      57.224195       0.05437
  49     2.949        6.9205        0.0003       64.1389       64.1392      57.218709       0.05468
  48     4.137        6.9204        0.0005       64.1310       64.1315      57.211077       0.05423
  47     5.803        6.9203        0.0007       64.1201       64.1208      57.200528       0.05344
  46     8.139        6.9200        0.0009       64.1051       64.1060      57.185993       0.05249
  45     11.42        6.9197        0.0013       64.0845       64.0858      57.166076       0.05128
  44     16.01        6.9193        0.0019       64.0565       64.0583      57.139026       0.04965
  43     22.46        6.9187        0.0026       64.0187       64.0213      57.102596       0.04767
  42     31.51        6.9179        0.0036       63.9683       63.9719      57.054087       0.04525
  41     44.20        6.9167        0.0051       63.9021       63.9072      56.990542       0.04226
  40     62.00        6.9150        0.0071       63.8170       63.8241      56.909107       0.03861
  39     85.78        6.9128        0.0098       63.7137       63.7235      56.810704       0.03493
  38     109.5        6.9106        0.0126       63.6174       63.6300      56.719390       0.03241
  37     133.1        6.9085        0.0152       63.5307       63.5459      56.637413       0.02944
  36     156.8        6.9064        0.0178       63.4470       63.4648      56.558355       0.02803
  35     180.6        6.9042        0.0205       63.3411       63.3616      56.457387       0.03585
  34     202.8        6.9022        0.0231       63.1774       63.2005      56.298330       0.06039
  33     228.4        6.9002        0.0257       62.8910       62.9167      56.016536       0.09297
  32     252.2        6.8983        0.0282       62.4548       62.4830      55.584699       0.15328
  31     276.0        6.8966        0.0305       61.8034       61.8339      54.937276       0.22981
  30     299.8        6.8952        0.0326       60.8493       60.8819      53.986639       0.33744
  29     323.5        6.8943        0.0345       59.6406       59.6751      52.780857       0.42800
  28     347.3        6.8939        0.0362       58.2994       58.3356      51.441718       0.47534
  27     371.1        6.8942        0.0378       56.9373       56.9751      50.080934       0.48302
  26     394.9        6.8954        0.0392       55.4853       55.5246      48.629216       0.51530
  25     418.6        6.8976        0.0405       53.9434       53.9839      47.086273       0.54768
  24     442.4        6.9011        0.0416       52.3152       52.3567      45.455680       0.57879
  23     466.2        6.9060        0.0425       50.6699       50.7124      43.806392       0.58543
  22     489.9        6.9126        0.0434       49.0609       49.1043      42.191672       0.57316
  21     513.7        6.9215        0.0441       47.4627       47.5068      40.585338       0.57018
  20     537.5        6.9330        0.0447       45.9016       45.9464      39.013405       0.55797
  19     561.3        6.9476        0.0453       44.3828       44.4281      37.480443       0.54414
  18     585.0        6.9662        0.0458       42.9069       42.9527      35.986461       0.53030
  17     608.8        6.9888        0.0463       41.5192       41.5655      34.576677       0.50042
  16     632.6        7.0163        0.0467       40.2123       40.2590      33.242721       0.47350
  15     656.4        7.0506        0.0471       38.9372       38.9843      31.933659       0.46466
  14     680.1        7.0934        0.0474       37.7038       37.7513      30.657877       0.45285
  13     703.9        7.1467        0.0477       36.5148       36.5625      29.415803       0.44089
  12     727.7        7.2147        0.0479       35.3478       35.3957      28.181009       0.43830
  11     751.5        7.3041        0.0480       34.1879       34.2360      26.931848       0.44340
  10     775.2        7.4221        0.0481       33.0529       33.1011      25.678980       0.44472
   9     799.0        7.5816        0.0481       31.9455       31.9936      24.412059       0.44970
   8     822.8        5.7887        2.7418       26.2504       28.9922      23.203516       0.42898
   7     846.6        4.0651        4.6354       21.6210       26.2564      22.191342       0.35928
   6     870.4        2.3928        5.9041       17.8444       23.7485      21.355645       0.29664
   5     894.1        0.7503        6.6704       14.7527       21.4231      20.672788       0.24239
   4     917.9        0.7589        6.4759       14.3625       20.8385      20.079557       0.21057
   3     941.7        0.7692        6.2952       13.9931       20.2883      19.519093       0.19894
   2     965.5        0.7816        6.1273       13.6449       19.7722      18.990608       0.18759
   1     989.2        0.7967        5.9711       13.3163       19.2874      18.490688       0.17741
   0    1013.0        0.8155        5.8250       13.0057       18.8307      18.015120       0.16884



 Wavenumbers:  7700. -  8050. cm-1, ATM      1
 LEVEL PRESSURE   UPWARD FLUX   DIFDOWN FLUX  DIRDOWN FLUX  DOWNWARD FLUX   NET FLUX    HEATING RATE
          mb          W/m2          W/m2          W/m2        W/m2          W/m2       degree/day
  60   .000300        3.4459        0.0000       15.1626       15.1626      11.716690       0.00000
  59    0.1000        3.4460        0.0000       15.1625       15.1625      11.716507       0.01549
  58    0.1403        3.4460        0.0000       15.1624       15.1624      11.716433       0.01558
  57    0.1968        3.4460        0.0000       15.1623       15.1623      11.716328       0.01566
  56    0.2760        3.4460        0.0000       15.1622       15.1622      11.716182       0.01553
  55    0.3871        3.4460        0.0000       15.1620       15.1620      11.715977       0.01560
  54    0.5430        3.4460        0.0000       15.1617       15.1617      11.715690       0.01554
  53    0.7617        3.4461        0.0000       15.1613       15.1614      11.715288       0.01551
  52     1.069        3.4461        0.0001       15.1608       15.1609      11.714720       0.01562
  51     1.499        3.4462        0.0001       15.1601       15.1602      11.713931       0.01547
  50     2.102        3.4463        0.0001       15.1591       15.1592      11.712838       0.01529
  49     2.949        3.4465        0.0001       15.1576       15.1578      11.711286       0.01547
  48     4.137        3.4467        0.0002       15.1556       15.1558      11.709108       0.01547
  47     5.803        3.4471        0.0003       15.1528       15.1531      11.706064       0.01542
  46     8.139        3.4475        0.0004       15.1489       15.1493      11.701807       0.01537
  45     11.42        3.4481        0.0006       15.1434       15.1440      11.695850       0.01534
  44     16.01        3.4490        0.0008       15.1358       15.1366      11.687527       0.01528
  43     22.46        3.4503        0.0011       15.1251       15.1262      11.675888       0.01523
  42     31.51        3.4520        0.0015       15.1101       15.1117      11.659623       0.01517
  41     44.20        3.4545        0.0022       15.0892       15.0914      11.636882       0.01512
  40     62.00        3.4580        0.0030       15.0604       15.0634      11.605386       0.01493
  39     85.78        3.4628        0.0042       15.0223       15.0265      11.563734       0.01478
  38     109.5        3.4676        0.0053       14.9841       14.9895      11.521844       0.01487
  37     133.1        3.4724        0.0065       14.9478       14.9543      11.481899       0.01434
  36     156.8        3.4771        0.0075       14.9129       14.9205      11.443381       0.01366
  35     180.6        3.4822        0.0087       14.8763       14.8850      11.402830       0.01440
  34     202.8        3.4871        0.0098       14.8414       14.8512      11.364112       0.01470
  33     228.4        3.4922        0.0109       14.8062       14.8171      11.324907       0.01294
  32     252.2        3.4974        0.0120       14.7713       14.7833      11.285856       0.01386
  31     276.0        3.5027        0.0131       14.7370       14.7501      11.247456       0.01363
  30     299.8        3.5080        0.0142       14.7027       14.7170      11.208904       0.01368
  29     323.5        3.5136        0.0153       14.6685       14.6839      11.170311       0.01370
  28     347.3        3.5191        0.0164       14.6347       14.6512      11.132013       0.01359
  27     371.1        3.5248        0.0175       14.6014       14.6189      11.094090       0.01346
  26     394.9        3.5307        0.0186       14.5675       14.5861      11.055423       0.01373
  25     418.6        3.5368        0.0197       14.5336       14.5533      11.016517       0.01381
  24     442.4        3.5431        0.0207       14.4995       14.5203      10.977223       0.01395
  23     466.2        3.5496        0.0218       14.4651       14.4869      10.937377       0.01414
  22     489.9        3.5562        0.0229       14.4307       14.4536      10.897388       0.01419
  21     513.7        3.5632        0.0239       14.3957       14.4196      10.856412       0.01454
  20     537.5        3.5704        0.0250       14.3603       14.3853      10.814909       0.01473
  19     561.3        3.5779        0.0260       14.3246       14.3506      10.772696       0.01498
  18     585.0        3.5859        0.0271       14.2875       14.3146      10.728728       0.01561
  17     608.8        3.5942        0.0281       14.2500       14.2781      10.683968       0.01589
  16     632.6        3.6028        0.0291       14.2119       14.2411      10.638266       0.01622
  15     656.4        3.6120        0.0302       14.1722       14.2024      10.590340       0.01701
  14     680.1        3.6218        0.0312       14.1314       14.1625      10.540708       0.01762
  13     703.9        3.6322        0.0321       14.0891       14.1212      10.489055       0.01833
  12     727.7        3.6435        0.0331       14.0446       14.0777      10.434279       0.01944
  11     751.5        3.6558        0.0341       13.9973       14.0314      10.375598       0.02083
  10     775.2        3.6693        0.0351       13.9473       13.9824      10.313123       0.02218
   9     799.0        3.6841        0.0360       13.8944       13.9304      10.246346       0.02370
   8     822.8        2.8530        1.2692       11.7615       13.0307      10.177672       0.02438
   7     846.6        2.0359        2.1934        9.9558       12.1492      10.113360       0.02283
   6     870.4        1.2301        2.8569        8.4275       11.2844      10.054339       0.02095
   5     894.1        0.4334        3.3005        7.1339       10.4344      10.001030       0.01892
   4     917.9        0.4348        3.2831        7.1014       10.3845       9.949649       0.01824
   3     941.7        0.4365        3.2651        7.0678       10.3329       9.896449       0.01888
   2     965.5        0.4382        3.2466        7.0333       10.2799       9.841704       0.01943
   1     989.2        0.4401        3.2277        6.9979       10.2256       9.785411       0.01998
   0    1013.0        0.4422        3.2083        6.9615       10.1698       9.727526       0.02055



 Wavenumbers:  8050. - 12850. cm-1, ATM      1
 LEVEL PRESSURE   UPWARD FLUX   DIFDOWN FLUX  DIRDOWN FLUX  DOWNWARD FLUX   NET FLUX    HEATING RATE
          mb          W/m2          W/m2          W/m2        W/m2          W/m2       degree/day
  60   .000300       43.4569        0.0000      212.2880      212.2880     168.831078       0.00000
  59    0.1000       43.4567        0.0002      212.2876      212.2878     168.831078       0.00000
  58    0.1403       43.4567        0.0003      212.2874      212.2878     168.831078       0.00000
  57    0.1968       43.4566        0.0005      212.2872      212.2877     168.831078      -0.00000
  56    0.2760       43.4565        0.0007      212.2869      212.2875     168.831078       0.00000
  55    0.3871       43.4563        0.0009      212.2864      212.2874     168.831078       0.00000
  54    0.5430       43.4560        0.0013      212.2858      212.2871     168.831078       0.00000
  53    0.7617       43.4557        0.0018      212.2850      212.2868     168.831078      -0.00000
  52     1.069       43.4552        0.0025      212.2837      212.2863     168.831078       0.00000
  51     1.499       43.4545        0.0036      212.2820      212.2856     168.831078       0.00000
  50     2.102       43.4536        0.0050      212.2797      212.2847     168.831078       0.00000
  49     2.949       43.4523        0.0070      212.2763      212.2833     168.831078       0.00000
  48     4.137       43.4504        0.0098      212.2717      212.2815     168.831078       0.00000
  47     5.803       43.4478        0.0137      212.2651      212.2788     168.831078       0.00000
  46     8.139       43.4441        0.0193      212.2559      212.2752     168.831078      -0.00000
  45     11.42       43.4390        0.0270      212.2430      212.2700     168.831078       0.00000
  44     16.01       43.4318        0.0378      212.2250      212.2628     168.831078      -0.00000
  43     22.46       43.4217        0.0530      212.1998      212.2527     168.831078      -0.00000
  42     31.51       43.4075        0.0743      212.1643      212.2386     168.831078       0.00000
  41     44.20       43.3876        0.1042      212.1145      212.2187     168.831078       0.00000
  40     62.00       43.3598        0.1459      212.0450      212.1909     168.831078      -0.00000
  39     85.78       43.3227        0.2016      211.9522      212.1538     168.831078       0.00000
  38     109.5       43.2852        0.2582      211.8451      212.1033     168.818153       0.00459
  37     133.1       43.2490        0.3127      211.7421      212.0548     168.805771       0.00445
  36     156.8       43.2138        0.3657      211.6412      212.0069     168.793059       0.00451
  35     180.6       43.1763        0.4221      211.5292      211.9512     168.774890       0.00645
  34     202.8       43.1403        0.4763      211.4041      211.8804     168.740099       0.01321
  33     228.4       43.1037        0.5316      211.2349      211.7665     168.662793       0.02551
  32     252.2       43.0673        0.5869      211.0003      211.5872     168.519869       0.05073
  31     276.0       43.0320        0.6413      210.6760      211.3173     168.285269       0.08327
  30     299.8       42.9975        0.6959      210.2328      210.9286     167.931100       0.12572
  29     323.5       42.9646        0.7502      209.6743      210.4245     167.459932       0.16725
  28     347.3       42.9341        0.8037      209.0175      209.8212     166.887045       0.20335
  27     371.1       42.9067        0.8560      208.2872      209.1432     166.236548       0.23090
  26     394.9       42.8822        0.9085      207.4416      208.3501     165.467903       0.27284
  25     418.6       42.8620        0.9603      206.4758      207.4361     164.574066       0.31728
  24     442.4       42.8470        1.0112      205.3737      206.3848     163.537801       0.36783
  23     466.2       42.8378        1.0614      204.1488      205.2102     162.372364       0.41368
  22     489.9       42.8356        1.1102      202.8236      203.9339     161.098267       0.45225
  21     513.7       42.8418        1.1584      201.3667      202.5251     159.683302       0.50225
  20     537.5       42.8584        1.2051      199.7935      200.9986     158.140211       0.54773
  19     561.3       42.8871        1.2502      198.0998      199.3500     156.462938       0.59536
  18     585.0       42.9299        1.2950      196.2781      197.5731     154.643191       0.64594
  17     608.8       42.9877        1.3383      194.3934      195.7317     152.744051       0.67412
  16     632.6       43.0627        1.3801      192.4530      193.8331     150.770364       0.70058
  15     656.4       43.1619        1.4213      190.4000      191.8213     148.659451       0.74929
  14     680.1       43.2904        1.4607      188.2528      189.7135     146.423047       0.79383
  13     703.9       43.4549        1.4983      186.0204      187.5187     144.063773       0.83745
  12     727.7       43.6680        1.5346      183.6647      185.1993     141.531265       0.89894
  11     751.5       43.9492        1.5691      181.1466      182.7157     138.766567       0.98135
  10     775.2       44.3163        1.6013      178.4925      180.0938     135.777435       1.06102
   9     799.0       44.7989        1.6311      175.7106      177.3417     132.542876       1.14814
   8     822.8       34.4989       16.8138      146.9312      163.7451     129.246189       1.17019
   7     846.6       24.4692       27.8784      122.9032      150.7816     126.312370       1.04139
   6     870.4       14.6422       35.5508      102.8491      138.3999     123.757694       0.90680
   5     894.1        4.9543       40.4380       86.0933      126.5314     121.577076       0.77403
   4     917.9        4.9697       39.7852       84.7888      124.5740     119.604344       0.70024
   3     941.7        4.9916       39.1544       83.5120      122.6664     117.674797       0.68491
   2     965.5        5.0213       38.5476       82.2701      120.8177     115.796373       0.66676
   1     989.2        5.0605       37.9623       81.0625      119.0248     113.964231       0.65020
   0    1013.0        5.1116       37.3969       79.8861      117.2830     112.171456       0.63650



 Wavenumbers: 12850. - 16000. cm-1, ATM      1
 LEVEL PRESSURE   UPWARD FLUX   DIFDOWN FLUX  DIRDOWN FLUX  DOWNWARD FLUX   NET FLUX    HEATING RATE
          mb          W/m2          W/m2          W/m2        W/m2          W/m2       degree/day
  60   .000300       34.3695        0.0000      133.0172      133.0172      98.647718       0.00000
  59    0.1000       34.3692        0.0005      133.0095      133.0101      98.640841       0.58205
  58    0.1403       34.3691        0.0007      133.0064      133.0072      98.638037       0.58721
  57    0.1968       34.3691        0.0010      133.0021      133.0031      98.634090       0.58953
  56    0.2760       34.3690        0.0014      132.9962      132.9976      98.628632       0.58159
  55    0.3871       34.3689        0.0020      132.9880      132.9900      98.621077       0.57390
  54    0.5430       34.3689        0.0028      132.9769      132.9797      98.610800       0.55632
  53    0.7617       34.3691        0.0039      132.9618      132.9658      98.596693       0.54437
  52     1.069       34.3697        0.0055      132.9413      132.9468      98.577134       0.53799
  51     1.499       34.3711        0.0078      132.9135      132.9212      98.550102       0.53016
  50     2.102       34.3744        0.0108      132.8748      132.8857      98.511274       0.54286
  49     2.949       34.3813        0.0152      132.8176      132.8328      98.451423       0.59661
  48     4.137       34.3942        0.0213      132.7325      132.7538      98.359675       0.65197
  47     5.803       34.4143        0.0299      132.6115      132.6413      98.227059       0.67181
  46     8.139       34.4416        0.0418      132.4493      132.4911      98.049482       0.64133
  45     11.42       34.4751        0.0585      132.2424      132.3009      97.825812       0.57587
  44     16.01       34.5143        0.0818      131.9828      132.0645      97.550286       0.50573
  43     22.46       34.5586        0.1144      131.6592      131.7736      97.215008       0.43872
  42     31.51       34.6024        0.1599      131.2747      131.4346      96.832190       0.35712
  41     44.20       34.6345        0.2238      130.8450      131.0688      96.434298       0.26461
  40     62.00       34.6480        0.3126      130.3669      130.6794      96.031450       0.19100
  39     85.78       34.6268        0.4309      129.8828      130.3138      95.686936       0.12229
  38     109.5       34.5906        0.5517      129.4797      130.0313      95.440699       0.08740
  37     133.1       34.5489        0.6675      129.1217      129.7893      95.240362       0.07194
  36     156.8       34.5045        0.7800      128.7892      129.5692      95.064658       0.06230
  35     180.6       34.4524        0.8992      128.4511      129.3503      94.897874       0.05921
  34     202.8       34.3976        1.0137      128.1377      129.1514      94.753880       0.05467
  33     228.4       34.3394        1.1302      127.8216      128.9518      94.612465       0.04666
  32     252.2       34.2798        1.2468      127.5049      128.7517      94.471914       0.04989
  31     276.0       34.2198        1.3617      127.1922      128.5538      94.334025       0.04894
  30     299.8       34.1588        1.4772      126.8751      128.3523      94.193501       0.04988
  29     323.5       34.0979        1.5926      126.5537      128.1463      94.048447       0.05149
  28     347.3       34.0380        1.7067      126.2298      127.9364      93.898425       0.05325
  27     371.1       33.9797        1.8190      125.9047      127.7237      93.744063       0.05479
  26     394.9       33.9216        1.9325      125.5688      127.5013      93.579755       0.05832
  25     418.6       33.8651        2.0454      125.2257      127.2711      93.406019       0.06167
  24     442.4       33.8106        2.1577      124.8736      127.0313      93.220760       0.06576
  23     466.2       33.7579        2.2699      124.5111      126.7810      93.023055       0.07018
  22     489.9       33.7084        2.3804      124.1420      126.5224      92.814037       0.07419
  21     513.7       33.6616        2.4909      123.7577      126.2486      92.587009       0.08059
  20     537.5       33.6189        2.5998      123.3614      125.9613      92.342371       0.08684
  19     561.3       33.5809        2.7072      122.9509      125.6581      92.077225       0.09412
  18     585.0       33.5471        2.8154      122.5175      125.3329      91.785871       0.10342
  17     608.8       33.5179        2.9218      122.0752      124.9970      91.479066       0.10890
  16     632.6       33.4939        3.0263      121.6228      124.6491      91.155180       0.11497
  15     656.4       33.4758        3.1310      121.1473      124.2783      90.802518       0.12518
  14     680.1       33.4657        3.2336      120.6531      123.8867      90.420966       0.13544
  13     703.9       33.4651        3.3340      120.1376      123.4715      90.006413       0.14715
  12     727.7       33.4762        3.4336      119.5892      123.0227      89.546552       0.16323
  11     751.5       33.5016        3.5321      119.0038      122.5359      89.034224       0.18186
  10     775.2       33.5443        3.6281      118.3848      122.0129      88.468536       0.20080
   9     799.0       33.6079        3.7214      117.7284      121.4498      87.841846       0.22245
   8     822.8       26.4387       14.1356       99.4873      113.6229      87.184121       0.23347
   7     846.6       19.3948       21.8946       84.0710      105.9656      86.570777       0.21771
   6     870.4       12.4524       27.4353       71.0293       98.4645      86.012161       0.19829
   5     894.1        5.5913       31.0940       60.0111       91.1050      85.513780       0.17690
   4     917.9        5.5505       30.9517       59.6390       90.5907      85.040227       0.16809
   3     941.7        5.5118       30.8071       59.2623       90.0694      84.557565       0.17133
   2     965.5        5.4758       30.6611       58.8840       89.5450      84.069209       0.17335
   1     989.2        5.4427       30.5139       58.5046       89.0185      83.575816       0.17510
   0    1013.0        5.4127       30.3657       58.1244       88.4901      83.077372       0.17696



 Wavenumbers: 16000. - 22650. cm-1, ATM      1
 LEVEL PRESSURE   UPWARD FLUX   DIFDOWN FLUX  DIRDOWN FLUX  DOWNWARD FLUX   NET FLUX    HEATING RATE
          mb          W/m2          W/m2          W/m2        W/m2          W/m2       degree/day
  60   .000300       66.5310        0.0000      212.0812      212.0812     145.550119       0.00000
  59    0.1000       66.5297        0.0029      212.0760      212.0789     145.549166       0.08064
  58    0.1403       66.5293        0.0040      212.0737      212.0777     145.548403       0.15982
  57    0.1968       66.5288        0.0057      212.0701      212.0758     145.547023       0.20618
  56    0.2760       66.5282        0.0080      212.0648      212.0728     145.544595       0.25863
  55    0.3871       66.5276        0.0112      212.0569      212.0681     145.540503       0.31084
  54    0.5430       66.5269        0.0157      212.0449      212.0606     145.533642       0.37143
  53    0.7617       66.5267        0.0220      212.0263      212.0483     145.521534       0.46720
  52     1.069       66.5277        0.0309      211.9965      212.0274     145.499768       0.59871
  51     1.499       66.5313        0.0433      211.9488      211.9921     145.460804       0.76417
  50     2.102       66.5408        0.0604      211.8701      211.9305     145.389722       0.99383
  49     2.949       66.5626        0.0847      211.7353      211.8200     145.257427       1.31875
  48     4.137       66.6044        0.1188      211.5152      211.6340     145.029590       1.61902
  47     5.803       66.6710        0.1663      211.1861      211.3524     144.681400       1.76387
  46     8.139       66.7612        0.2328      210.7354      210.9681     144.206888       1.71373
  45     11.42       66.8700        0.3255      210.1559      210.4814     143.611371       1.53324
  44     16.01       66.9945        0.4550      209.4264      209.8813     142.886850       1.32987
  43     22.46       67.1307        0.6358      208.5155      209.1513     142.020600       1.13352
  42     31.51       67.2551        0.8882      207.4281      208.3163     141.061204       0.89499
  41     44.20       67.3226        1.2412      206.1997      207.4409     140.118299       0.62707
  40     62.00       67.3033        1.7309      204.7997      206.5306     139.227317       0.42243
  39     85.78       67.1359        2.3812      203.3150      205.6963     138.560389       0.23673
  38     109.5       66.8867        3.0377      202.0234      205.0611     138.174348       0.13703
  37     133.1       66.6261        3.6648      200.8408      204.5056     137.879513       0.10588
  36     156.8       66.3609        4.2703      199.7260      203.9963     137.635387       0.08657
  35     180.6       66.0640        4.9094      198.5859      203.4953     137.431275       0.07246
  34     202.8       65.7636        5.5206      197.5309      203.0515     137.287897       0.05444
  33     228.4       65.4496        6.1397      196.4789      202.6185     137.168992       0.03923
  32     252.2       65.1300        6.7559      195.4408      202.1968     137.066803       0.03627
  31     276.0       64.8094        7.3608      194.4310      201.7918     136.982332       0.02998
  30     299.8       64.4827        7.9662      193.4267      201.3928     136.910141       0.02562
  29     323.5       64.1535        8.5685      192.4286      200.9971     136.843614       0.02361
  28     347.3       63.8257        9.1613      191.4464      200.6078     136.782080       0.02184
  27     371.1       63.5007        9.7425      190.4836      200.2261     136.725441       0.02010
  26     394.9       63.1700       10.3278      189.5132      199.8410     136.671016       0.01932
  25     418.6       62.8393       10.9074      188.5503      199.4577     136.618417       0.01867
  24     442.4       62.5083       11.4825      187.5927      199.0752     136.566913       0.01828
  23     466.2       62.1758       12.0549      186.6371      198.6920     136.516250       0.01798
  22     489.9       61.8465       12.6169      185.6961      198.3131     136.466593       0.01763
  21     513.7       61.5150       13.1782      184.7529      197.9311     136.416166       0.01790
  20     537.5       61.1865       13.7304      183.8209      197.5513     136.364763       0.01825
  19     561.3       60.8606       14.2743      182.8981      197.1723     136.311728       0.01883
  18     585.0       60.5304       14.8218      181.9641      196.7860     136.255630       0.01991
  17     608.8       60.2035       15.3601      181.0409      196.4010     136.197507       0.02063
  16     632.6       59.8801       15.8894      180.1276      196.0171     136.136957       0.02149
  15     656.4       59.5537       16.4207      179.2047      195.6254     136.071679       0.02317
  14     680.1       59.2312       16.9432      178.2893      195.2325     136.001302       0.02498
  13     703.9       58.9128       17.4572      177.3803      194.8375     135.924686       0.02720
  12     727.7       58.5941       17.9704      176.4629      194.4333     135.839173       0.03035
  11     751.5       58.2758       18.4826      175.5353      194.0179     135.742080       0.03446
  10     775.2       57.9623       18.9876      174.6074      193.5950     135.632680       0.03883
   9     799.0       57.6542       19.4851      173.6783      193.1634     135.509203       0.04383
   8     822.8       46.1935       34.7387      146.8313      181.5700     135.376531       0.04709
   7     846.6       34.8951       46.0112      124.1335      170.1448     135.249692       0.04502
   6     870.4       23.7350       53.9160      104.9503      158.8663     135.131248       0.04204
   5     894.1       12.6909       58.9823       88.7315      147.7138     135.022850       0.03848
   4     917.9       12.3740       59.0483       88.2430      147.2913     134.917271       0.03748
   3     941.7       12.0568       59.1106       87.7537      146.8643     134.807510       0.03896
   2     965.5       11.7416       59.1688       87.2673      146.4361     134.694485       0.04012
   1     989.2       11.4286       59.2232       86.7839      146.0071     134.578565       0.04114
   0    1013.0       11.1176       59.2739       86.3036      145.5775     134.459970       0.04210



 Wavenumbers: 22650. - 29000. cm-1, ATM      1
 LEVEL PRESSURE   UPWARD FLUX   DIFDOWN FLUX  DIRDOWN FLUX  DOWNWARD FLUX   NET FLUX    HEATING RATE
          mb          W/m2          W/m2          W/m2        W/m2          W/m2       degree/day
  60   .000300       33.5515        0.0000       80.0317       80.0317      46.480204       0.00000
  59    0.1000       33.5500        0.0035       80.0267       80.0302      46.480204       0.00000
  58    0.1403       33.5494        0.0049       80.0247       80.0296      46.480204      -0.00000
  57    0.1968       33.5485        0.0069       80.0218       80.0287      46.480204      -0.00000
  56    0.2760       33.5473        0.0097       80.0178       80.0275      46.480204       0.00000
  55    0.3871       33.5456        0.0136       80.0122       80.0258      46.480204      -0.00000
  54    0.5430       33.5432        0.0191       80.0043       80.0234      46.480204       0.00000
  53    0.7617       33.5399        0.0268       79.9933       80.0201      46.480204       0.00000
  52     1.069       33.5352        0.0376       79.9778       80.0154      46.480204       0.00000
  51     1.499       33.5287        0.0526       79.9562       80.0089      46.480204      -0.00000
  50     2.102       33.5196        0.0735       79.9263       79.9998      46.480204      -0.00000
  49     2.949       33.5068        0.1031       79.8839       79.9870      46.480204      -0.00000
  48     4.137       33.4888        0.1446       79.8244       79.9690      46.480204       0.00000
  47     5.803       33.4636        0.2025       79.7412       79.9438      46.480204       0.00000
  46     8.139       33.4283        0.2835       79.6249       79.9085      46.480204      -0.00000
  45     11.42       33.3788        0.3967       79.4623       79.8590      46.480204       0.00000
  44     16.01       33.3096        0.5546       79.2352       79.7898      46.480204       0.00000
  43     22.46       33.2126        0.7749       78.9179       79.6928      46.480204      -0.00000
  42     31.51       33.0766        1.0817       78.4751       79.5568      46.480204       0.00000
  41     44.20       32.8857        1.5086       77.8573       79.3659      46.480204       0.00000
  40     62.00       32.6195        2.0958       77.0038       79.0997      46.480204      -0.00000
  39     85.78       32.2644        2.8653       75.8793       78.7446      46.480204       0.00000
  38     109.5       31.9040        3.6302       74.7539       78.3842      46.480204      -0.00000
  37     133.1       31.5574        4.3507       73.6869       78.0376      46.480204       0.00000
  36     156.8       31.2205        5.0370       72.6637       77.7007      46.480204       0.00000
  35     180.6       30.8627        5.7508       71.5922       77.3430      46.480204       0.00000
  34     202.8       30.5186        6.4231       70.5757       76.9988      46.480204       0.00000
  33     228.4       30.1679        7.0939       69.5542       76.6481      46.480204      -0.00000
  32     252.2       29.8164        7.7518       68.5449       76.2966      46.480204       0.00000
  31     276.0       29.4693        8.3876       67.5619       75.9495      46.480204      -0.00000
  30     299.8       29.1196        9.0143       66.5855       75.5998      46.480204       0.00000
  29     323.5       28.7693        9.6283       65.6212       75.2495      46.480204       0.00000
  28     347.3       28.4222       10.2233       64.6791       74.9024      46.480204      -0.00000
  27     371.1       28.0796       10.7977       63.7621       74.5598      46.480204      -0.00000
  26     394.9       27.7323       11.3670       62.8455       74.2125      46.480204       0.00000
  25     418.6       27.3858       11.9221       61.9439       73.8660      46.480204       0.00000
  24     442.4       27.0396       12.4640       61.0558       73.5198      46.480204       0.00000
  23     466.2       26.6926       12.9947       60.1781       73.1728      46.480204      -0.00000
  22     489.9       26.3495       13.5074       59.3223       72.8297      46.480204       0.00000
  21     513.7       26.0043       14.0110       58.4735       72.4845      46.480204       0.00000
  20     537.5       25.6622       14.4983       57.6441       72.1424      46.480204      -0.00000
  19     561.3       25.3227       14.9704       56.8325       71.8029      46.480204       0.00000
  18     585.0       24.9783       15.4378       56.0207       71.4585      46.480204       0.00000
  17     608.8       24.6371       15.8895       55.2278       71.1173      46.480204       0.00000
  16     632.6       24.2991       16.3261       54.4531       70.7793      46.480204       0.00000
  15     656.4       23.9571       16.7569       53.6804       70.4373      46.480204      -0.00000
  14     680.1       23.6180       17.1733       52.9249       70.0982      46.480204      -0.00000
  13     703.9       23.2816       17.5759       52.1859       69.7618      46.480204       0.00000
  12     727.7       22.9428       17.9710       51.4520       69.4230      46.480204       0.00000
  11     751.5       22.6015       18.3585       50.7232       69.0817      46.480204      -0.00000
  10     775.2       22.2620       18.7340       50.0082       68.7422      46.480204       0.00000
   9     799.0       21.9241       19.0976       49.3067       68.4043      46.480204      -0.00000
   8     822.8       17.8176       22.9782       41.3195       64.2978      46.480189       0.00001
   7     846.6       13.7605       25.6139       34.6268       60.2407      46.480174       0.00001
   6     870.4        9.7465       27.2065       29.0202       56.2267      46.480162       0.00000
   5     894.1        5.7689       27.9246       24.3245       52.2490      46.480150       0.00000
   4     917.9        5.4419       27.9398       23.9822       51.9221      46.480150       0.00000
   3     941.7        5.1142       27.9501       23.6442       51.5943      46.480150       0.00000
   2     965.5        4.7881       27.9554       23.3129       51.2683      46.480150       0.00000
   1     989.2        4.4638       27.9559       22.9881       50.9440      46.480150       0.00000
   0    1013.0        4.1411       27.9517       22.6696       50.6213      46.480150       0.00000



 Wavenumbers: 29000. - 38000. cm-1, ATM      1
 LEVEL PRESSURE   UPWARD FLUX   DIFDOWN FLUX  DIRDOWN FLUX  DOWNWARD FLUX   NET FLUX    HEATING RATE
          mb          W/m2          W/m2          W/m2        W/m2          W/m2       degree/day
  60   .000300        6.5853        0.0000       28.2225       28.2225      21.637201       0.00000
  59    0.1000        6.5835        0.0028       28.1859       28.1887      21.605176       2.71076
  58    0.1403        6.5828        0.0039       28.1585       28.1624      21.579611       5.35352
  57    0.1968        6.5819        0.0055       28.1101       28.1156      21.533670       6.86201
  56    0.2760        6.5808        0.0076       28.0271       28.0347      21.453930       8.49664
  55    0.3871        6.5794        0.0106       27.8913       27.9020      21.322617       9.97452
  54    0.5430        6.5775        0.0147       27.6738       27.6885      21.110957      11.45754
  53    0.7617        6.5755        0.0202       27.3185       27.3387      20.763240      13.41765
  52     1.069        6.5735        0.0275       26.7574       26.7849      20.211367      15.18036
  51     1.499        6.5722        0.0368       25.9466       25.9834      19.411191      15.69324
  50     2.102        6.5732        0.0485       24.8886       24.9370      18.363871      14.64295
  49     2.949        6.5793        0.0637       23.6539       23.7176      17.138314      12.21669
  48     4.137        6.5941        0.0837       22.3800       22.4637      15.869524       9.01609
  47     5.803        6.6198        0.1101       21.1533       21.2634      14.643596       6.21033
  46     8.139        6.6561        0.1458       20.0304       20.1762      13.520071       4.05768
  45     11.42        6.7014        0.1940       19.0179       19.2119      12.510504       2.59927
  44     16.01        6.7559        0.2590       18.0801       18.3391      11.583177       1.70212
  43     22.46        6.8209        0.3470       17.1858       17.5328      10.711912       1.14008
  42     31.51        6.8892        0.4666       16.3448       16.8115       9.922307       0.73659
  41     44.20        6.9419        0.6309       15.5663       16.1972       9.255307       0.44358
  40     62.00        6.9674        0.8538       14.8065       15.6603       8.692923       0.26663
  39     85.78        6.9321        1.1440       14.0925       15.2365       8.304379       0.13792
  38     109.5        6.8561        1.4303       13.5167       14.9470       8.090868       0.07579
  37     133.1        6.7744        1.6933       13.0134       14.7066       7.932220       0.05697
  36     156.8        6.6912        1.9374       12.5564       14.4938       7.802684       0.04593
  35     180.6        6.5962        2.1867       12.1053       14.2920       7.695870       0.03792
  34     202.8        6.4977        2.4177       11.7016       14.1193       7.621534       0.02822
  33     228.4        6.3942        2.6434       11.3112       13.9546       7.560369       0.02018
  32     252.2        6.2887        2.8597       10.9372       13.7970       7.508242       0.01850
  31     276.0        6.1827        3.0644       10.5839       13.6483       7.465628       0.01513
  30     299.8        6.0744        3.2618       10.2424       13.5042       7.429743       0.01274
  29     323.5        5.9656        3.4503        9.9126       13.3629       7.397332       0.01150
  28     347.3        5.8575        3.6283        9.5973       13.2256       7.368090       0.01038
  27     371.1        5.7505        3.7959        9.2967       13.0925       7.342002       0.00926
  26     394.9        5.6418        3.9576        9.0022       12.9597       7.317907       0.00855
  25     418.6        5.5334        4.1109        8.7182       12.8290       7.295653       0.00790
  24     442.4        5.4250        4.2564        8.4437       12.7000       7.275038       0.00732
  23     466.2        5.3163        4.3947        8.1775       12.5723       7.256003       0.00676
  22     489.9        5.2087        4.5245        7.9229       12.4473       7.238628       0.00617
  21     513.7        5.1005        4.6480        7.6749       12.3228       7.222347       0.00578
  20     537.5        4.9933        4.7636        7.4369       12.2005       7.207156       0.00539
  19     561.3        4.8870        4.8719        7.2080       12.0799       7.192934       0.00505
  18     585.0        4.7793        4.9754        6.9831       11.9585       7.179258       0.00485
  17     608.8        4.6726        5.0718        6.7672       11.8390       7.166367       0.00458
  16     632.6        4.5670        5.1614        6.5598       11.7212       7.154197       0.00432
  15     656.4        4.4603        5.2463        6.3565       11.6028       7.142462       0.00417
  14     680.1        4.3546        5.3248        6.1611       11.4860       7.131355       0.00394
  13     703.9        4.2498        5.3975        5.9732       11.3706       7.120832       0.00374
  12     727.7        4.1444        5.4654        5.7897       11.2551       7.110704       0.00359
  11     751.5        4.0382        5.5287        5.6105       11.1392       7.100964       0.00346
  10     775.2        3.9327        5.5867        5.4377       11.0244       7.091710       0.00328
   9     799.0        3.8278        5.6396        5.2710       10.9107       7.082912       0.00312
   8     822.8        3.1614        5.8947        4.3414       10.2360       7.074681       0.00292
   7     846.6        2.5014        5.9930        3.5758        9.5688       7.067350       0.00260
   6     870.4        1.8474        5.9619        2.9464        8.9083       7.060919       0.00228
   5     894.1        1.1982        5.8257        2.4279        8.2536       7.055347       0.00198
   4     917.9        1.0946        5.7918        2.3531        8.1449       7.050265       0.00180
   3     941.7        0.9908        5.7558        2.2804        8.0362       7.045390       0.00173
   2     965.5        0.8876        5.7179        2.2104        7.9283       7.040753       0.00165
   1     989.2        0.7849        5.6783        2.1429        7.8212       7.036339       0.00157
   0    1013.0        0.6828        5.6371        2.0778        7.7149       7.032139       0.00149



 Wavenumbers: 38000. - 50000. cm-1, ATM      1
 LEVEL PRESSURE   UPWARD FLUX   DIFDOWN FLUX  DIRDOWN FLUX  DOWNWARD FLUX   NET FLUX    HEATING RATE
          mb          W/m2          W/m2          W/m2        W/m2          W/m2       degree/day
  60   .000300        0.0069        0.0000        1.7407        1.7407       1.733864       0.00000
  59    0.1000        0.0063        0.0006        1.7198        1.7204       1.714069       1.67562
  58    0.1403        0.0061        0.0008        1.7047        1.7056       1.699408       3.07012
  57    0.1968        0.0059        0.0012        1.6784        1.6796       1.673683       3.84232
  56    0.2760        0.0056        0.0016        1.6341        1.6357       1.630132       4.64062
  55    0.3871        0.0051        0.0021        1.5634        1.5655       1.560405       5.29648
  54    0.5430        0.0046        0.0028        1.4543        1.4571       1.452495       5.84133
  53    0.7617        0.0039        0.0034        1.2861        1.2895       1.285598       6.44019
  52     1.069        0.0031        0.0037        1.0457        1.0495       1.046342       6.58121
  51     1.499        0.0024        0.0037        0.7523        0.7559       0.753565       5.74202
  50     2.102        0.0017        0.0031        0.4664        0.4695       0.467843       3.99478
  49     2.949        0.0012        0.0024        0.2581        0.2604       0.259286       2.07895
  48     4.137        0.0008        0.0017        0.1381        0.1398       0.139011       0.85468
  47     5.803        0.0005        0.0013        0.0728        0.0741       0.073572       0.33150
  46     8.139        0.0003        0.0009        0.0388        0.0397       0.039349       0.12360
  45     11.42        0.0002        0.0006        0.0198        0.0204       0.020194       0.04932
  44     16.01        0.0001        0.0004        0.0090        0.0093       0.009236       0.02011
  43     22.46        0.0000        0.0002        0.0034        0.0036       0.003591       0.00739
  42     31.51        0.0000        0.0001        0.0011        0.0012       0.001179       0.00225
  41     44.20        0.0000        0.0000        0.0003        0.0003       0.000327       0.00057
  40     62.00        0.0000        0.0000        0.0001        0.0001       0.000070       0.00012
  39     85.78        0.0000        0.0000        0.0000        0.0000       0.000012       0.00002
  38     109.5        0.0000        0.0000        0.0000        0.0000       0.000002       0.00000
  37     133.1        0.0000        0.0000        0.0000        0.0000       0.000000       0.00000
  36     156.8        0.0000        0.0000        0.0000        0.0000       0.000000       0.00000
  35     180.6        0.0000        0.0000        0.0000        0.0000       0.000000       0.00000
  34     202.8        0.0000        0.0000        0.0000        0.0000       0.000000       0.00000
  33     228.4        0.0000        0.0000        0.0000        0.0000       0.000000       0.00000
  32     252.2        0.0000        0.0000        0.0000        0.0000       0.000000       0.00000
  31     276.0        0.0000        0.0000        0.0000        0.0000       0.000000       0.00000
  30     299.8        0.0000        0.0000        0.0000        0.0000       0.000000       0.00000
  29     323.5        0.0000        0.0000        0.0000        0.0000       0.000000       0.00000
  28     347.3        0.0000        0.0000        0.0000        0.0000       0.000000       0.00000
  27     371.1        0.0000        0.0000        0.0000        0.0000       0.000000       0.00000
  26     394.9        0.0000        0.0000        0.0000        0.0000       0.000000       0.00000
  25     418.6        0.0000        0.0000        0.0000        0.0000       0.000000       0.00000
  24     442.4        0.0000        0.0000        0.0000        0.0000       0.000000       0.00000
  23     466.2        0.0000        0.0000        0.0000        0.0000       0.000000       0.00000
  22     489.9        0.0000        0.0000        0.0000        0.0000       0.000000       0.00000
  21     513.7        0.0000        0.0000        0.0000        0.0000       0.000000       0.00000
  20     537.5        0.0000        0.0000        0.0000        0.0000       0.000000       0.00000
  19     561.3        0.0000        0.0000        0.0000        0.0000       0.000000       0.00000
  18     585.0        0.0000        0.0000        0.0000        0.0000       0.000000       0.00000
  17     608.8        0.0000        0.0000        0.0000        0.0000       0.000000       0.00000
  16     632.6        0.0000        0.0000        0.0000        0.0000       0.000000       0.00000
  15     656.4        0.0000        0.0000        0.0000        0.0000       0.000000       0.00000
  14     680.1        0.0000        0.0000        0.0000        0.0000       0.000000       0.00000
  13     703.9        0.0000        0.0000        0.0000        0.0000       0.000000       0.00000
  12     727.7        0.0000        0.0000        0.0000        0.0000       0.000000       0.00000
  11     751.5        0.0000        0.0000        0.0000        0.0000       0.000000       0.00000
  10     775.2        0.0000        0.0000        0.0000        0.0000       0.000000       0.00000
   9     799.0        0.0000        0.0000        0.0000        0.0000       0.000000       0.00000
   8     822.8        0.0000        0.0000        0.0000        0.0000       0.000000       0.00000
   7     846.6        0.0000        0.0000        0.0000        0.0000       0.000000       0.00000
   6     870.4        0.0000        0.0000        0.0000        0.0000       0.000000       0.00000
   5     894.1        0.0000        0.0000        0.0000        0.0000       0.000000       0.00000
   4     917.9        0.0000        0.0000        0.0000        0.0000       0.000000       0.00000
   3     941.7        0.0000        0.0000        0.0000        0.0000       0.000000       0.00000
   2     965.5        0.0000        0.0000        0.0000        0.0000       0.000000       0.00000
   1     989.2        0.0000        0.0000        0.0000        0.0000       0.000000       0.00000
   0    1013.0        0.0000        0.0000        0.0000        0.0000       0.000000       0.00000



 Wavenumbers:   820. -  2600. cm-1, ATM      1
 LEVEL PRESSURE   UPWARD FLUX   DIFDOWN FLUX  DIRDOWN FLUX  DOWNWARD FLUX   NET FLUX    HEATING RATE
          mb          W/m2          W/m2          W/m2        W/m2          W/m2       degree/day
  60   .000300        0.5463        0.0000        8.1430        8.1430       7.596668       0.00000
  59    0.1000        0.5463        0.0000        8.1331        8.1331       7.586781       0.83686
  58    0.1403        0.5463        0.0000        8.1309        8.1309       7.584642       0.44785
  57    0.1968        0.5463        0.0000        8.1281        8.1281       7.581802       0.42421
  56    0.2760        0.5463        0.0000        8.1245        8.1245       7.578235       0.38011
  55    0.3871        0.5463        0.0000        8.1201        8.1201       7.573774       0.33886
  54    0.5430        0.5463        0.0000        8.1143        8.1143       7.568018       0.31158
  53    0.7617        0.5463        0.0000        8.1063        8.1063       7.560032       0.30816
  52     1.069        0.5463        0.0000        8.0951        8.0951       7.548784       0.30941
  51     1.499        0.5463        0.0000        8.0799        8.0799       7.533594       0.29791
  50     2.102        0.5463        0.0000        8.0595        8.0595       7.513182       0.28538
  49     2.949        0.5463        0.0000        8.0314        8.0314       7.485042       0.28051
  48     4.137        0.5463        0.0000        7.9935        7.9935       7.447194       0.26895
  47     5.803        0.5463        0.0000        7.9444        7.9444       7.398070       0.24885
  46     8.139        0.5463        0.0000        7.8811        7.8811       7.334789       0.22854
  45     11.42        0.5463        0.0000        7.8004        7.8004       7.254060       0.20785
  44     16.01        0.5463        0.0000        7.7070        7.7070       7.160697       0.17137
  43     22.46        0.5464        0.0000        7.6181        7.6181       7.071712       0.11644
  42     31.51        0.5464        0.0000        7.5468        7.5468       7.000419       0.06651
  41     44.20        0.5464        0.0000        7.4816        7.4816       6.935199       0.04337
  40     62.00        0.5465        0.0000        7.3998        7.3998       6.853338       0.03881
  39     85.78        0.5466        0.0000        7.2958        7.2958       6.749238       0.03695
  38     109.5        0.5467        0.0000        7.1946        7.1946       6.647982       0.03594
  37     133.1        0.5467        0.0000        7.1003        7.1003       6.553536       0.03392
  36     156.8        0.5468        0.0000        7.0126        7.0126       6.465814       0.03111
  35     180.6        0.5469        0.0000        6.9166        6.9166       6.369666       0.03413
  34     202.8        0.5471        0.0000        6.8041        6.8042       6.257115       0.04273
  33     228.4        0.5472        0.0000        6.6630        6.6630       6.115807       0.04662
  32     252.2        0.5474        0.0000        6.4917        6.4917       5.944265       0.06089
  31     276.0        0.5477        0.0000        6.3090        6.3091       5.761395       0.06491
  30     299.8        0.5481        0.0000        6.1153        6.1153       5.567259       0.06891
  29     323.5        0.5486        0.0000        5.9197        5.9197       5.371150       0.06961
  28     347.3        0.5492        0.0000        5.7036        5.7036       5.154346       0.07696
  27     371.1        0.5501        0.0000        5.4648        5.4649       4.914787       0.08503
  26     394.9        0.5511        0.0000        5.2059        5.2060       4.654897       0.09225
  25     418.6        0.5523        0.0000        4.9521        4.9521       4.399829       0.09054
  24     442.4        0.5537        0.0000        4.7233        4.7233       4.169692       0.08169
  23     466.2        0.5552        0.0000        4.5370        4.5370       3.981815       0.06669
  22     489.9        0.5570        0.0000        4.3924        4.3925       3.835490       0.05194
  21     513.7        0.5591        0.0000        4.2764        4.2764       3.717303       0.04195
  20     537.5        0.5616        0.0000        4.1775        4.1776       3.615912       0.03599
  19     561.3        0.5646        0.0000        4.0839        4.0840       3.519367       0.03427
  18     585.0        0.5681        0.0000        3.9882        3.9883       3.420163       0.03521
  17     608.8        0.5722        0.0000        3.8907        3.8907       3.318579       0.03606
  16     632.6        0.5768        0.0000        3.7911        3.7912       3.214318       0.03701
  15     656.4        0.5825        0.0000        3.6867        3.6868       3.104287       0.03906
  14     680.1        0.5893        0.0000        3.5795        3.5795       2.990276       0.04047
  13     703.9        0.5974        0.0000        3.4709        3.4710       2.873581       0.04142
  12     727.7        0.6076        0.0000        3.3598        3.3599       2.752298       0.04305
  11     751.5        0.6208        0.0000        3.2443        3.2443       2.623528       0.04571
  10     775.2        0.6380        0.0000        3.1256        3.1256       2.487600       0.04825
   9     799.0        0.6607        0.0000        3.0033        3.0033       2.342587       0.05147
   8     822.8        0.4984        0.2475        2.4467        2.6942       2.195878       0.05208
   7     846.6        0.3435        0.4166        1.9932        2.4098       2.066285       0.04600
   6     870.4        0.1942        0.5235        1.6237        2.1472       1.952936       0.04023
   5     894.1        0.0483        0.5813        1.3215        1.9028       1.854530       0.03493
   4     917.9        0.0503        0.5507        1.2627        1.8134       1.763078       0.03246
   3     941.7        0.0526        0.5202        1.2034        1.7236       1.670980       0.03269
   2     965.5        0.0553        0.4899        1.1439        1.6338       1.578462       0.03284
   1     989.2        0.0586        0.4601        1.0842        1.5443       1.485746       0.03290
   0    1013.0        0.0625        0.4308        1.0249        1.4557       1.393198       0.03286

  Modules and versions used in this calculation:

       rrtmg_sw.1col.f90:  $Revision$                    rrtmg_sw_init.f90:  $Revision$        
     rrtmgsw_cldprop.f90:  $Revision$                  rrtmgsw_cldprmc.f90:  NOT USED          
     rrtmg_sw_reftra.f90:  $Revision$                  rrtmg_sw_spcvrt.f90:  NOT USED          
     rrtmg_sw_spcvmc.f90:  NOT USED                    rrtmgsw_setcoef.f90:  NOT USED          
     rrtmg_sw_taumol.f90:  $Revision$                  rrtmg_sw_vrtqdr.f90:  NOT USED          
                rrtatm.f:  NOT USED                             util_xxx.f:  NOT USED          
                 extra.f:  NOT USED                       rrtmg_sw_k_g.f90:  $Revision$        

