

 Wavenumbers:   820. - 50000. cm-1, ATM      1
 LEVEL PRESSURE   UPWARD FLUX   DIFDOWN FLUX  DIRDOWN FLUX  DOWNWARD FLUX   NET FLUX    HEATING RATE
          mb          W/m2          W/m2          W/m2        W/m2          W/m2       degree/day
  60   .000300      315.0323        0.0000      837.8224      837.8224     522.790061       0.00000
  59    0.1000      315.0277        0.0113      837.7137      837.7250     522.697283       7.85323
  58    0.1403      315.0261        0.0159      837.6563      837.6722     522.646069      10.72463
  57    0.1968      315.0241        0.0223      837.5614      837.5836     522.559511      12.92874
  56    0.2760      315.0218        0.0311      837.4070      837.4382     522.416405      15.24867
  55    0.3871      315.0189        0.0435      837.1641      837.2076     522.188640      17.30105
  54    0.5430      315.0159        0.0606      836.7876      836.8482     521.832321      19.28818
  53    0.7617      315.0136        0.0840      836.1942      836.2782     521.264597      21.90719
  52     1.069      315.0138        0.1161      835.2926      835.4087     520.394904      23.92264
  51     1.499      315.0206        0.1593      834.0471      834.2064     519.185829      23.71266
  50     2.102      315.0423        0.2176      832.4995      832.7171     517.674830      21.12582
  49     2.949      315.0949        0.2989      830.7483      831.0472     515.952288      17.17078
  48     4.137      315.1980        0.4119      828.8944      829.3063     514.108300      13.10347
  47     5.803      315.3637        0.5688      826.9459      827.5147     512.151021       9.91522
  46     8.139      315.5902        0.7869      824.8978      825.6848     510.094606       7.42688
  45     11.42      315.8667        1.0905      822.7006      823.7911     507.924412       5.58746
  44     16.01      316.1890        1.5121      820.2525      821.7646     505.575557       4.31136
  43     22.46      316.5528        2.0984      817.4463      819.5447     502.991925       3.38078
  42     31.51      316.9068        2.9139      814.2518      817.1656     500.258897       2.54954
  41     44.20      317.1448        4.0501      810.6480      814.6981     497.553303       1.79933
  40     62.00      317.2002        5.6184      806.4553      812.0737     494.873522       1.27052
  39     85.78      316.9175        7.6875      801.7674      809.4549     492.537431       0.82922
  38     109.5      316.4410        9.7616      797.4817      807.2433     490.802232       0.61592
  37     133.1      315.9309       11.7248      793.5510      805.2757     489.344833       0.52337
  36     156.8      315.4075       13.6040      789.8548      803.4588     488.051309       0.45868
  35     180.6      314.8136       15.5710      786.0084      801.5794     486.765811       0.45638
  34     202.8      314.2051       17.4370      782.2124      799.6493     485.444249       0.50177
  33     228.4      313.5674       19.3109      778.0467      797.3576     483.790221       0.54573
  32     252.2      312.9194       21.1604      773.4741      794.6345     481.715182       0.73655
  31     276.0      312.2712       22.9603      768.4389      791.3992     479.127975       0.91835
  30     299.8      311.6148       24.7464      762.7642      787.5106     475.895843       1.14727
  29     323.5      310.9607       26.5083      756.6288      783.1370     472.176289       1.32029
  28     347.3      310.3192       28.2272      750.2254      778.4526     468.133400       1.43506
  27     371.1      309.6936       29.8983      743.7251      773.6234     463.929797       1.49211
  26     394.9      309.0704       31.5667      736.8957      768.4624     459.392037       1.61072
  25     418.6      308.4633       33.2049      729.8721      763.0770     454.613764       1.69609
  24     442.4      307.8751       34.8162      722.6783      757.4945     449.619397       1.77279
  23     466.2      307.3057       36.4064      715.4381      751.8445     444.538805       1.80340
  22     489.9      306.7673       37.9543      708.2772      746.2315     439.464196       1.80128
  21     513.7      306.2568       39.4870      701.0441      740.5311     434.274316       1.84219
  20     537.5      305.7891       40.9816      693.8325      734.8141     429.024952       1.86331
  19     561.3      305.3705       42.4413      686.6319      729.0733     423.702752       1.88916
  18     585.0      304.9965       43.8982      679.3701      723.2683     418.271863       1.92774
  17     608.8      304.6813       45.3182      672.2525      717.5707     412.889373       1.91056
  16     632.6      304.4336       46.7025      665.2624      711.9649     407.531360       1.90187
  15     656.4      304.2669       48.0798      658.1915      706.2713     402.004355       1.96186
  14     680.1      304.2112       49.4224      651.1209      700.5433     396.332157       2.01340
  13     703.9      304.2898       50.7312      644.0582      694.7894     390.499627       2.07031
  12     727.7      304.5420       52.0261      636.8758      688.9019     384.359946       2.17933
  11     751.5      305.0378       53.3061      629.4911      682.7972     377.759386       2.34293
  10     775.2      305.8527       54.5555      621.9804      676.5359     370.683177       2.51176
   9     799.0      307.1017       55.7743      614.3441      670.1185     363.016768       2.72126
   8     822.8      233.2914      184.5948      404.1378      588.7327     355.441313       2.68897
   7     846.6      162.9159      246.1787      265.9504      512.1291     349.213234       2.21071
   6     870.4       94.8120      264.0271      175.0773      439.1044     344.292436       1.74668
   5     894.1       28.1355      253.4715      115.2879      368.7594     340.623885       1.30218
   4     917.9       27.5826      251.2294      113.9635      365.1929     337.610320       1.06969
   3     941.7       27.0396      249.0460      112.6647      361.7107     334.671131       1.04329
   2     965.5       26.5127      246.9271      111.3984      358.3255     331.812814       1.01458
   1     989.2       26.0047      244.8669      110.1637      355.0306     329.025899       0.98903
   0    1013.0       25.5193      242.8596      108.9580      351.8176     326.298300       0.96839



 Wavenumbers:  2600. -  3250. cm-1, ATM      1
 LEVEL PRESSURE   UPWARD FLUX   DIFDOWN FLUX  DIRDOWN FLUX  DOWNWARD FLUX   NET FLUX    HEATING RATE
          mb          W/m2          W/m2          W/m2        W/m2          W/m2       degree/day
  60   .000300        1.3128        0.0000        7.3841        7.3841       6.071286       0.00000
  59    0.1000        1.3128        0.0000        7.3840        7.3840       6.071214       0.00613
  58    0.1403        1.3128        0.0000        7.3840        7.3840       6.071184       0.00614
  57    0.1968        1.3128        0.0000        7.3839        7.3839       6.071143       0.00616
  56    0.2760        1.3128        0.0000        7.3839        7.3839       6.071086       0.00613
  55    0.3871        1.3128        0.0000        7.3838        7.3838       6.071001       0.00642
  54    0.5430        1.3128        0.0000        7.3837        7.3837       6.070876       0.00678
  53    0.7617        1.3128        0.0000        7.3835        7.3835       6.070679       0.00761
  52     1.069        1.3128        0.0000        7.3831        7.3831       6.070349       0.00908
  51     1.499        1.3128        0.0000        7.3825        7.3825       6.069740       0.01193
  50     2.102        1.3128        0.0000        7.3814        7.3814       6.068651       0.01522
  49     2.949        1.3128        0.0000        7.3795        7.3795       6.066766       0.01880
  48     4.137        1.3128        0.0000        7.3765        7.3765       6.063752       0.02142
  47     5.803        1.3128        0.0000        7.3721        7.3721       6.059320       0.02245
  46     8.139        1.3128        0.0000        7.3661        7.3661       6.053313       0.02170
  45     11.42        1.3128        0.0000        7.3586        7.3586       6.045806       0.01933
  44     16.01        1.3128        0.0000        7.3500        7.3500       6.037228       0.01574
  43     22.46        1.3128        0.0000        7.3407        7.3407       6.027909       0.01219
  42     31.51        1.3128        0.0000        7.3297        7.3297       6.016938       0.01023
  41     44.20        1.3128        0.0000        7.3134        7.3134       6.000574       0.01088
  40     62.00        1.3129        0.0000        7.2860        7.2860       5.973139       0.01301
  39     85.78        1.3130        0.0000        7.2438        7.2439       5.930892       0.01500
  38     109.5        1.3131        0.0000        7.1969        7.1970       5.883821       0.01671
  37     133.1        1.3133        0.0001        7.1517        7.1518       5.838499       0.01628
  36     156.8        1.3135        0.0001        7.1092        7.1093       5.795803       0.01514
  35     180.6        1.3137        0.0001        7.0662        7.0663       5.752534       0.01536
  34     202.8        1.3140        0.0001        7.0262        7.0262       5.712199       0.01531
  33     228.4        1.3145        0.0001        6.9846        6.9847       5.670233       0.01385
  32     252.2        1.3151        0.0001        6.9407        6.9408       5.625658       0.01582
  31     276.0        1.3160        0.0001        6.8941        6.8942       5.578291       0.01681
  30     299.8        1.3170        0.0001        6.8424        6.8426       5.525528       0.01873
  29     323.5        1.3184        0.0001        6.7849        6.7851       5.466612       0.02091
  28     347.3        1.3202        0.0001        6.7206        6.7208       5.400534       0.02345
  27     371.1        1.3224        0.0001        6.6496        6.6497       5.327356       0.02598
  26     394.9        1.3250        0.0002        6.5676        6.5677       5.242715       0.03004
  25     418.6        1.3282        0.0002        6.4741        6.4743       5.146064       0.03431
  24     442.4        1.3321        0.0002        6.3671        6.3673       5.035232       0.03934
  23     466.2        1.3366        0.0002        6.2486        6.2487       4.912102       0.04371
  22     489.9        1.3419        0.0002        6.1205        6.1206       4.778717       0.04735
  21     513.7        1.3483        0.0002        5.9812        5.9814       4.633084       0.05169
  20     537.5        1.3558        0.0002        5.8338        5.8340       4.478210       0.05497
  19     561.3        1.3646        0.0002        5.6819        5.6821       4.317443       0.05707
  18     585.0        1.3750        0.0002        5.5274        5.5276       4.152633       0.05850
  17     608.8        1.3869        0.0002        5.3761        5.3763       3.989402       0.05794
  16     632.6        1.4005        0.0002        5.2281        5.2283       3.827811       0.05736
  15     656.4        1.4167        0.0002        5.0791        5.0793       3.662616       0.05864
  14     680.1        1.4359        0.0002        4.9299        4.9301       3.494199       0.05978
  13     703.9        1.4588        0.0002        4.7798        4.7800       3.321183       0.06141
  12     727.7        1.4869        0.0002        4.6253        4.6255       3.138558       0.06482
  11     751.5        1.5224        0.0002        4.4633        4.4635       2.941102       0.07009
  10     775.2        1.5673        0.0002        4.2949        4.2951       2.727788       0.07572
   9     799.0        1.6252        0.0002        4.1205        4.1207       2.495539       0.08244
   8     822.8        1.1877        0.8265        2.6270        3.4535       2.265821       0.08154
   7     846.6        0.7910        1.1943        1.6749        2.8693       2.078241       0.06658
   6     870.4        0.4209        1.2841        1.0686        2.3528       1.931891       0.05195
   5     894.1        0.0668        1.2091        0.6825        1.8916       1.824730       0.03804
   4     917.9        0.0687        1.1531        0.6543        1.8074       1.738723       0.03053
   3     941.7        0.0708        1.1004        0.6272        1.7276       1.656793       0.02908
   2     965.5        0.0733        1.0505        0.6014        1.6520       1.578687       0.02772
   1     989.2        0.0762        1.0033        0.5769        1.5803       1.504064       0.02648
   0    1013.0        0.0796        0.9585        0.5534        1.5119       1.432274       0.02549



 Wavenumbers:  3250. -  4000. cm-1, ATM      1
 LEVEL PRESSURE   UPWARD FLUX   DIFDOWN FLUX  DIRDOWN FLUX  DOWNWARD FLUX   NET FLUX    HEATING RATE
          mb          W/m2          W/m2          W/m2        W/m2          W/m2       degree/day
  60   .000300        0.0148        0.0000       12.4485       12.4485      12.433623       0.00000
  59    0.1000        0.0148        0.0000       12.4290       12.4290      12.414121       1.65079
  58    0.1403        0.0148        0.0000       12.4252       12.4252      12.410407       0.77776
  57    0.1968        0.0148        0.0000       12.4208       12.4208      12.405934       0.66803
  56    0.2760        0.0148        0.0000       12.4156       12.4156      12.400771       0.55013
  55    0.3871        0.0148        0.0000       12.4096       12.4096      12.394738       0.45825
  54    0.5430        0.0148        0.0000       12.4022       12.4022      12.387410       0.39669
  53    0.7617        0.0148        0.0000       12.3928       12.3928      12.377950       0.36506
  52     1.069        0.0148        0.0000       12.3807       12.3807      12.365909       0.33119
  51     1.499        0.0148        0.0000       12.3664       12.3664      12.351552       0.28159
  50     2.102        0.0148        0.0000       12.3498       12.3498      12.334918       0.23256
  49     2.949        0.0148        0.0000       12.3302       12.3302      12.315383       0.19473
  48     4.137        0.0148        0.0000       12.3067       12.3068      12.291918       0.16675
  47     5.803        0.0148        0.0000       12.2766       12.2766      12.261800       0.15257
  46     8.139        0.0148        0.0000       12.2347       12.2348      12.219932       0.15121
  45     11.42        0.0148        0.0000       12.1733       12.1733      12.158519       0.15812
  44     16.01        0.0148        0.0000       12.0830       12.0830      12.068208       0.16577
  43     22.46        0.0148        0.0000       11.9527       11.9527      11.937918       0.17049
  42     31.51        0.0148        0.0000       11.7748       11.7748      11.760033       0.16594
  41     44.20        0.0148        0.0001       11.5551       11.5552      11.540396       0.14607
  40     62.00        0.0148        0.0001       11.3050       11.3051      11.290328       0.11856
  39     85.78        0.0147        0.0001       11.0142       11.0143      10.999540       0.10322
  38     109.5        0.0147        0.0001       10.7175       10.7176      10.702920       0.10529
  37     133.1        0.0147        0.0002       10.4459       10.4460      10.431373       0.09752
  36     156.8        0.0146        0.0002       10.1944       10.1946      10.179985       0.08914
  35     180.6        0.0146        0.0002        9.9218        9.9220       9.907426       0.09676
  34     202.8        0.0146        0.0002        9.5970        9.5973       9.582655       0.12331
  33     228.4        0.0146        0.0002        9.1820        9.1823       9.167716       0.13690
  32     252.2        0.0146        0.0003        8.7004        8.7006       8.686069       0.17096
  31     276.0        0.0146        0.0003        8.1693        8.1695       8.154985       0.18851
  30     299.8        0.0146        0.0003        7.5886        7.5889       7.574315       0.20611
  29     323.5        0.0146        0.0003        6.9823        6.9825       6.967953       0.21523
  28     347.3        0.0146        0.0003        6.3629        6.3631       6.348490       0.21988
  27     371.1        0.0147        0.0002        5.7699        5.7701       5.755443       0.21051
  26     394.9        0.0148        0.0002        5.2041        5.2043       5.189500       0.20089
  25     418.6        0.0149        0.0002        4.6962        4.6964       4.681440       0.18034
  24     442.4        0.0151        0.0002        4.2409        4.2411       4.225965       0.16168
  23     466.2        0.0154        0.0002        3.8328        3.8330       3.817535       0.14498
  22     489.9        0.0158        0.0002        3.4648        3.4650       3.449252       0.13073
  21     513.7        0.0163        0.0002        3.1218        3.1220       3.105728       0.12194
  20     537.5        0.0169        0.0002        2.8040        2.8042       2.787296       0.11303
  19     561.3        0.0177        0.0002        2.5083        2.5084       2.490735       0.10527
  18     585.0        0.0187        0.0001        2.2301        2.2302       2.211493       0.09912
  17     608.8        0.0201        0.0001        1.9731        1.9732       1.953143       0.09170
  16     632.6        0.0218        0.0001        1.7337        1.7338       1.712084       0.08557
  15     656.4        0.0240        0.0001        1.5041        1.5042       1.480187       0.08231
  14     680.1        0.0271        0.0001        1.2888        1.2888       1.261752       0.07754
  13     703.9        0.0313        0.0001        1.0908        1.0909       1.059568       0.07177
  12     727.7        0.0373        0.0001        0.9082        0.9083       0.870999       0.06693
  11     751.5        0.0462        0.0001        0.7390        0.7391       0.692873       0.06323
  10     775.2        0.0600        0.0000        0.5856        0.5857       0.525675       0.05935
   9     799.0        0.0823        0.0000        0.4484        0.4484       0.366133       0.05663
   8     822.8        0.0461        0.0568        0.2193        0.2761       0.230029       0.04831
   7     846.6        0.0240        0.0586        0.1044        0.1630       0.139024       0.03230
   6     870.4        0.0101        0.0437        0.0483        0.0920       0.081961       0.02025
   5     894.1        0.0000        0.0275        0.0216        0.0492       0.049147       0.01165
   4     917.9        0.0000        0.0161        0.0140        0.0300       0.030036       0.00678
   3     941.7        0.0000        0.0089        0.0086        0.0175       0.017472       0.00446
   2     965.5        0.0000        0.0046        0.0051        0.0097       0.009670       0.00277
   1     989.2        0.0001        0.0023        0.0028        0.0051       0.005061       0.00164
   0    1013.0        0.0001        0.0010        0.0015        0.0026       0.002441       0.00093



 Wavenumbers:  4000. -  4650. cm-1, ATM      1
 LEVEL PRESSURE   UPWARD FLUX   DIFDOWN FLUX  DIRDOWN FLUX  DOWNWARD FLUX   NET FLUX    HEATING RATE
          mb          W/m2          W/m2          W/m2        W/m2          W/m2       degree/day
  60   .000300        4.4600        0.0000       14.6183       14.6183      10.158304       0.00000
  59    0.1000        4.4600        0.0000       14.6182       14.6182      10.158295       0.00076
  58    0.1403        4.4600        0.0000       14.6182       14.6182      10.158291       0.00077
  57    0.1968        4.4600        0.0000       14.6182       14.6182      10.158286       0.00077
  56    0.2760        4.4600        0.0000       14.6182       14.6182      10.158279       0.00076
  55    0.3871        4.4600        0.0000       14.6182       14.6182      10.158268       0.00080
  54    0.5430        4.4599        0.0000       14.6182       14.6182      10.158253       0.00085
  53    0.7617        4.4599        0.0000       14.6182       14.6182      10.158228       0.00095
  52     1.069        4.4599        0.0000       14.6181       14.6181      10.158187       0.00114
  51     1.499        4.4599        0.0000       14.6180       14.6181      10.158109       0.00152
  50     2.102        4.4599        0.0000       14.6179       14.6179      10.157968       0.00197
  49     2.949        4.4599        0.0000       14.6176       14.6177      10.157715       0.00252
  48     4.137        4.4599        0.0000       14.6172       14.6172      10.157286       0.00305
  47     5.803        4.4599        0.0000       14.6165       14.6165      10.156593       0.00351
  46     8.139        4.4599        0.0000       14.6154       14.6154      10.155510       0.00391
  45     11.42        4.4599        0.0001       14.6137       14.6138      10.153839       0.00430
  44     16.01        4.4599        0.0001       14.6112       14.6112      10.151305       0.00465
  43     22.46        4.4599        0.0001       14.6074       14.6075      10.147523       0.00495
  42     31.51        4.4599        0.0001       14.6017       14.6018      10.141862       0.00528
  41     44.20        4.4600        0.0002       14.5927       14.5929      10.132912       0.00595
  40     62.00        4.4601        0.0003       14.5788       14.5791      10.118994       0.00660
  39     85.78        4.4603        0.0004       14.5592       14.5596      10.099310       0.00699
  38     109.5        4.4607        0.0005       14.5382       14.5387      10.077974       0.00757
  37     133.1        4.4611        0.0006       14.5177       14.5183      10.057188       0.00746
  36     156.8        4.4616        0.0007       14.4977       14.4984      10.036728       0.00726
  35     180.6        4.4623        0.0008       14.4759       14.4767      10.014399       0.00793
  34     202.8        4.4631        0.0009       14.4536       14.4545       9.991416       0.00873
  33     228.4        4.4642        0.0010       14.4280       14.4291       9.964865       0.00876
  32     252.2        4.4656        0.0011       14.3983       14.3994       9.933857       0.01101
  31     276.0        4.4674        0.0012       14.3635       14.3648       9.897410       0.01294
  30     299.8        4.4697        0.0013       14.3217       14.3230       9.853357       0.01564
  29     323.5        4.4725        0.0014       14.2720       14.2735       9.800918       0.01861
  28     347.3        4.4761        0.0015       14.2129       14.2144       9.738316       0.02222
  27     371.1        4.4801        0.0016       14.1438       14.1454       9.665260       0.02593
  26     394.9        4.4847        0.0017       14.0605       14.0622       9.577500       0.03115
  25     418.6        4.4898        0.0018       13.9639       13.9658       9.475947       0.03605
  24     442.4        4.4956        0.0019       13.8548       13.8567       9.361077       0.04077
  23     466.2        4.5021        0.0020       13.7365       13.7385       9.236375       0.04426
  22     489.9        4.5095        0.0021       13.6136       13.6157       9.106235       0.04619
  21     513.7        4.5180        0.0022       13.4859       13.4881       8.970133       0.04831
  20     537.5        4.5277        0.0022       13.3568       13.3590       8.831266       0.04929
  19     561.3        4.5390        0.0023       13.2261       13.2284       8.689370       0.05037
  18     585.0        4.5523        0.0024       13.0915       13.0939       8.541585       0.05246
  17     608.8        4.5675        0.0025       12.9542       12.9567       8.389169       0.05410
  16     632.6        4.5849        0.0025       12.8109       12.8135       8.228546       0.05701
  15     656.4        4.6057        0.0026       12.6541       12.6567       8.051020       0.06301
  14     680.1        4.6304        0.0027       12.4832       12.4859       7.855532       0.06939
  13     703.9        4.6600        0.0027       12.2977       12.3004       7.640466       0.07634
  12     727.7        4.6965        0.0028       12.0950       12.0978       7.401267       0.08491
  11     751.5        4.7430        0.0028       11.8732       11.8760       7.133054       0.09520
  10     775.2        4.8027        0.0029       11.6374       11.6403       6.837540       0.10490
   9     799.0        4.8813        0.0029       11.3910       11.3939       6.512633       0.11533
   8     822.8        3.6296        2.3986        7.4221        9.8206       6.191021       0.11416
   7     846.6        2.4595        3.5499        4.8401        8.3900       5.930433       0.09250
   6     870.4        1.3428        3.9109        3.1595        7.0704       5.727637       0.07198
   5     894.1        0.2588        3.7733        2.0639        5.8372       5.578475       0.05295
   4     917.9        0.2618        3.6943        2.0246        5.7189       5.457175       0.04306
   3     941.7        0.2652        3.6180        1.9864        5.6044       5.339129       0.04190
   2     965.5        0.2692        3.5437        1.9491        5.4928       5.223538       0.04103
   1     989.2        0.2739        3.4709        1.9126        5.3835       5.109634       0.04042
   0    1013.0        0.2794        3.3994        1.8766        5.2760       4.996597       0.04013



 Wavenumbers:  4650. -  5150. cm-1, ATM      1
 LEVEL PRESSURE   UPWARD FLUX   DIFDOWN FLUX  DIRDOWN FLUX  DOWNWARD FLUX   NET FLUX    HEATING RATE
          mb          W/m2          W/m2          W/m2        W/m2          W/m2       degree/day
  60   .000300        3.2738        0.0000       13.8369       13.8369      10.563071       0.00000
  59    0.1000        3.2738        0.0000       13.8347       13.8347      10.560953       0.17928
  58    0.1403        3.2738        0.0000       13.8339       13.8339      10.560114       0.17564
  57    0.1968        3.2738        0.0000       13.8327       13.8327      10.558949       0.17409
  56    0.2760        3.2738        0.0000       13.8312       13.8312      10.557359       0.16936
  55    0.3871        3.2738        0.0000       13.8290       13.8290      10.555179       0.16558
  54    0.5430        3.2738        0.0000       13.8260       13.8260      10.552244       0.15891
  53    0.7617        3.2738        0.0000       13.8221       13.8221      10.548340       0.15065
  52     1.069        3.2738        0.0000       13.8170       13.8170      10.543187       0.14175
  51     1.499        3.2738        0.0000       13.8105       13.8105      10.536703       0.12717
  50     2.102        3.2738        0.0000       13.8026       13.8026      10.528831       0.11005
  49     2.949        3.2738        0.0000       13.7933       13.7933      10.519532       0.09269
  48     4.137        3.2738        0.0000       13.7830       13.7831      10.509287       0.07280
  47     5.803        3.2738        0.0000       13.7724       13.7724      10.498637       0.05395
  46     8.139        3.2738        0.0001       13.7615       13.7616      10.487805       0.03912
  45     11.42        3.2738        0.0001       13.7497       13.7498      10.476024       0.03033
  44     16.01        3.2738        0.0001       13.7347       13.7348      10.460976       0.02762
  43     22.46        3.2739        0.0001       13.7122       13.7123      10.438449       0.02948
  42     31.51        3.2740        0.0002       13.6758       13.6760      10.402072       0.03393
  41     44.20        3.2742        0.0003       13.6167       13.6170      10.342845       0.03939
  40     62.00        3.2746        0.0004       13.5244       13.5248      10.250245       0.04390
  39     85.78        3.2753        0.0006       13.3944       13.3950      10.119707       0.04634
  38     109.5        3.2762        0.0007       13.2650       13.2658       9.989522       0.04621
  37     133.1        3.2774        0.0009       13.1487       13.1496       9.872248       0.04211
  36     156.8        3.2787        0.0010       13.0449       13.0459       9.767179       0.03726
  35     180.6        3.2804        0.0011       12.9437       12.9448       9.664459       0.03647
  34     202.8        3.2822        0.0013       12.8534       12.8547       9.572464       0.03493
  33     228.4        3.2845        0.0014       12.7658       12.7672       9.482700       0.02962
  32     252.2        3.2872        0.0016       12.6801       12.6817       9.394513       0.03130
  31     276.0        3.2904        0.0017       12.5950       12.5967       9.306367       0.03129
  30     299.8        3.2943        0.0018       12.5053       12.5071       9.212854       0.03319
  29     323.5        3.2990        0.0020       12.4093       12.4112       9.112185       0.03573
  28     347.3        3.3046        0.0021       12.3075       12.3096       9.004968       0.03806
  27     371.1        3.3110        0.0022       12.1993       12.2015       8.890521       0.04062
  26     394.9        3.3185        0.0023       12.0815       12.0839       8.765395       0.04441
  25     418.6        3.3271        0.0025       11.9549       11.9573       8.630254       0.04797
  24     442.4        3.3369        0.0026       11.8185       11.8211       8.484238       0.05183
  23     466.2        3.3480        0.0027       11.6730       11.6757       8.327675       0.05557
  22     489.9        3.3605        0.0028       11.5203       11.5231       8.162552       0.05861
  21     513.7        3.3748        0.0029       11.3577       11.3605       7.985782       0.06275
  20     537.5        3.3908        0.0030       11.1878       11.1908       7.799991       0.06595
  19     561.3        3.4090        0.0031       11.0105       11.0135       7.604569       0.06937
  18     585.0        3.4297        0.0031       10.8249       10.8280       7.398291       0.07322
  17     608.8        3.4529        0.0032       10.6366       10.6398       7.186939       0.07502
  16     632.6        3.4788        0.0033       10.4463       10.4496       6.970810       0.07672
  15     656.4        3.5088        0.0034       10.2497       10.2530       6.744245       0.08042
  14     680.1        3.5429        0.0034       10.0509       10.0544       6.511434       0.08264
  13     703.9        3.5819        0.0035        9.8514        9.8549       6.272983       0.08464
  12     727.7        3.6274        0.0035        9.6483        9.6518       6.024390       0.08824
  11     751.5        3.6819        0.0036        9.4402        9.4438       5.761896       0.09317
  10     775.2        3.7470        0.0036        9.2294        9.2330       5.486040       0.09792
   9     799.0        3.8258        0.0037        9.0169        9.0205       5.194695       0.10342
   8     822.8        2.8416        1.8911        5.8679        7.7590       4.917377       0.09844
   7     846.6        1.9232        2.7925        3.8212        6.6138       4.690550       0.08051
   6     870.4        1.0472        3.0688        2.4902        5.5591       4.511892       0.06342
   5     894.1        0.1962        2.9518        1.6234        4.5752       4.379032       0.04716
   4     917.9        0.1992        2.8802        1.5888        4.4690       4.269787       0.03878
   3     941.7        0.2026        2.8108        1.5550        4.3657       4.163164       0.03785
   2     965.5        0.2064        2.7437        1.5220        4.2657       4.059357       0.03685
   1     989.2        0.2107        2.6789        1.4898        4.1687       3.958073       0.03594
   0    1013.0        0.2155        2.6162        1.4584        4.0746       3.859088       0.03514



 Wavenumbers:  5150. -  6150. cm-1, ATM      1
 LEVEL PRESSURE   UPWARD FLUX   DIFDOWN FLUX  DIRDOWN FLUX  DOWNWARD FLUX   NET FLUX    HEATING RATE
          mb          W/m2          W/m2          W/m2        W/m2          W/m2       degree/day
  60   .000300        7.6432        0.0000       34.6891       34.6891      27.045917       0.00000
  59    0.1000        7.6432        0.0000       34.6886       34.6886      27.045421       0.04201
  58    0.1403        7.6432        0.0000       34.6884       34.6884      27.045220       0.04194
  57    0.1968        7.6432        0.0000       34.6881       34.6881      27.044938       0.04211
  56    0.2760        7.6432        0.0000       34.6877       34.6877      27.044547       0.04167
  55    0.3871        7.6432        0.0000       34.6871       34.6871      27.043997       0.04177
  54    0.5430        7.6431        0.0000       34.6864       34.6864      27.043231       0.04148
  53    0.7617        7.6431        0.0000       34.6853       34.6853      27.042161       0.04129
  52     1.069        7.6431        0.0000       34.6838       34.6838      27.040653       0.04147
  51     1.499        7.6431        0.0000       34.6817       34.6817      27.038561       0.04103
  50     2.102        7.6431        0.0001       34.6787       34.6788      27.035668       0.04045
  49     2.949        7.6431        0.0001       34.6746       34.6747      27.031582       0.04073
  48     4.137        7.6431        0.0001       34.6689       34.6690      27.025897       0.04040
  47     5.803        7.6431        0.0002       34.6610       34.6612      27.018056       0.03972
  46     8.139        7.6432        0.0002       34.6502       34.6505      27.007309       0.03881
  45     11.42        7.6432        0.0003       34.6356       34.6359      26.992712       0.03758
  44     16.01        7.6432        0.0005       34.6159       34.6164      26.973137       0.03593
  43     22.46        7.6433        0.0007       34.5899       34.5906      26.947265       0.03385
  42     31.51        7.6435        0.0009       34.5564       34.5573      26.913840       0.03118
  41     44.20        7.6437        0.0013       34.5139       34.5153      26.871510       0.02815
  40     62.00        7.6442        0.0018       34.4619       34.4637      26.819486       0.02467
  39     85.78        7.6450        0.0025       34.4020       34.4045      26.759578       0.02126
  38     109.5        7.6458        0.0033       34.3491       34.3524      26.706607       0.01880
  37     133.1        7.6466        0.0039       34.3031       34.3071      26.660488       0.01656
  36     156.8        7.6474        0.0046       34.2595       34.2641      26.616715       0.01552
  35     180.6        7.6483        0.0053       34.2031       34.2084      26.560103       0.02010
  34     202.8        7.6492        0.0060       34.1091       34.1151      26.465961       0.03574
  33     228.4        7.6501        0.0066       33.9252       33.9319      26.281719       0.06079
  32     252.2        7.6512        0.0073       33.6087       33.6159      25.964713       0.11252
  31     276.0        7.6524        0.0079       33.1225       33.1304      25.477977       0.17277
  30     299.8        7.6538        0.0084       32.4763       32.4847      24.830894       0.22969
  29     323.5        7.6556        0.0089       31.7610       31.7699      24.114305       0.25436
  28     347.3        7.6577        0.0093       31.0137       31.0231      23.365409       0.26583
  27     371.1        7.6602        0.0097       30.2247       30.2344      22.574251       0.28083
  26     394.9        7.6633        0.0101       29.3520       29.3621      21.698808       0.31075
  25     418.6        7.6670        0.0104       28.4400       28.4504      20.783418       0.32493
  24     442.4        7.6716        0.0107       27.5194       27.5301      19.858561       0.32829
  23     466.2        7.6770        0.0110       26.6227       26.6337      18.956735       0.32011
  22     489.9        7.6835        0.0113       25.7669       25.7781      18.094584       0.30603
  21     513.7        7.6916        0.0115       24.9371       24.9486      17.256998       0.29731
  20     537.5        7.7014        0.0117       24.1537       24.1655      16.464087       0.28145
  19     561.3        7.7134        0.0120       23.4247       23.4367      15.723331       0.26294
  18     585.0        7.7280        0.0122       22.7500       22.7622      15.034168       0.24462
  17     608.8        7.7455        0.0124       22.1480       22.1605      14.414939       0.21980
  16     632.6        7.7664        0.0127       21.6116       21.6243      13.857873       0.19774
  15     656.4        7.7923        0.0130       21.1193       21.1323      13.340036       0.18381
  14     680.1        7.8241        0.0132       20.6722       20.6854      12.861338       0.16992
  13     703.9        7.8633        0.0135       20.2664       20.2798      12.416504       0.15790
  12     727.7        7.9130        0.0137       19.8884       19.9021      11.989097       0.15171
  11     751.5        7.9774        0.0140       19.5264       19.5404      11.562991       0.15125
  10     775.2        8.0613        0.0142       19.1765       19.1908      11.129477       0.15388
   9     799.0        8.1719        0.0144       18.8290       18.8435      10.671544       0.16255
   8     822.8        6.0928        4.0017       12.3118       16.3136      10.220723       0.16002
   7     846.6        4.1408        5.9372        8.0532       13.9904       9.849565       0.13175
   6     870.4        2.2741        6.5588        5.2706       11.8294       9.555254       0.10447
   5     894.1        0.4578        6.3435        3.4509        9.7944       9.336641       0.07760
   4     917.9        0.4605        6.2285        3.3921        9.6205       9.160001       0.06270
   3     941.7        0.4638        6.1203        3.3355        9.4558       8.991967       0.05965
   2     965.5        0.4678        6.0201        3.2819        9.3019       8.834134       0.05602
   1     989.2        0.4727        5.9277        3.2315        9.1593       8.686596       0.05236
   0    1013.0        0.4788        5.8427        3.1845        9.0273       8.548447       0.04905



 Wavenumbers:  6150. -  7700. cm-1, ATM      1
 LEVEL PRESSURE   UPWARD FLUX   DIFDOWN FLUX  DIRDOWN FLUX  DOWNWARD FLUX   NET FLUX    HEATING RATE
          mb          W/m2          W/m2          W/m2        W/m2          W/m2       degree/day
  60   .000300       11.9928        0.0000       64.1588       64.1588      52.166000       0.00000
  59    0.1000       11.9928        0.0000       64.1581       64.1581      52.165340       0.05584
  58    0.1403       11.9928        0.0000       64.1578       64.1578      52.165073       0.05593
  57    0.1968       11.9928        0.0000       64.1574       64.1574      52.164697       0.05625
  56    0.2760       11.9927        0.0000       64.1569       64.1569      52.164173       0.05580
  55    0.3871       11.9927        0.0000       64.1561       64.1562      52.163435       0.05604
  54    0.5430       11.9927        0.0001       64.1551       64.1551      52.162405       0.05578
  53    0.7617       11.9927        0.0001       64.1536       64.1537      52.160964       0.05562
  52     1.069       11.9927        0.0001       64.1515       64.1516      52.158931       0.05590
  51     1.499       11.9926        0.0002       64.1486       64.1488      52.156114       0.05524
  50     2.102       11.9926        0.0003       64.1446       64.1448      52.152226       0.05437
  49     2.949       11.9925        0.0004       64.1389       64.1393      52.146740       0.05468
  48     4.137       11.9924        0.0005       64.1310       64.1315      52.139108       0.05423
  47     5.803       11.9923        0.0007       64.1201       64.1208      52.128559       0.05344
  46     8.139       11.9921        0.0010       64.1051       64.1061      52.114024       0.05249
  45     11.42       11.9918        0.0014       64.0845       64.0859      52.094107       0.05128
  44     16.01       11.9914        0.0020       64.0565       64.0584      52.067056       0.04965
  43     22.46       11.9908        0.0028       64.0187       64.0215      52.030625       0.04767
  42     31.51       11.9901        0.0039       63.9683       63.9722      51.982114       0.04525
  41     44.20       11.9890        0.0054       63.9021       63.9076      51.918565       0.04226
  40     62.00       11.9875        0.0076       63.8170       63.8246      51.837123       0.03861
  39     85.78       11.9855        0.0105       63.7137       63.7242      51.738708       0.03493
  38     109.5       11.9835        0.0134       63.6174       63.6308      51.647374       0.03242
  37     133.1       11.9815        0.0162       63.5307       63.5469      51.565375       0.02945
  36     156.8       11.9797        0.0190       63.4470       63.4660      51.486290       0.02804
  35     180.6       11.9777        0.0219       63.3411       63.3630      51.385279       0.03586
  34     202.8       11.9759        0.0246       63.1774       63.2021      51.226153       0.06042
  33     228.4       11.9742        0.0274       62.8910       62.9185      50.944242       0.09301
  32     252.2       11.9727        0.0301       62.4548       62.4849      50.512214       0.15335
  31     276.0       11.9715        0.0326       61.8034       61.8360      49.864476       0.22992
  30     299.8       11.9708        0.0349       60.8493       60.8841      48.913309       0.33763
  29     323.5       11.9709        0.0370       59.6406       59.6776      47.706687       0.42830
  28     347.3       11.9720        0.0389       58.2994       58.3383      46.366289       0.47579
  27     371.1       11.9742        0.0406       56.9373       56.9780      45.003756       0.48364
  26     394.9       11.9780        0.0423       55.4853       55.5276      43.549606       0.51616
  25     418.6       11.9836        0.0437       53.9434       53.9870      42.003417       0.54883
  24     442.4       11.9916        0.0449       52.3152       52.3601      40.368556       0.58031
  23     466.2       12.0021        0.0461       50.6699       50.7159      38.713834       0.58736
  22     489.9       12.0157        0.0471       49.0609       49.1080      37.092311       0.57557
  21     513.7       12.0334        0.0480       47.4627       47.5107      35.477318       0.57326
  20     537.5       12.0559        0.0488       45.9016       45.9505      33.894564       0.56181
  19     561.3       12.0842        0.0495       44.3828       44.4323      32.348147       0.54891
  18     585.0       12.1197        0.0502       42.9069       42.9571      30.837420       0.53625
  17     608.8       12.1626        0.0509       41.5192       41.5701      29.407474       0.50757
  16     632.6       12.2145        0.0515       40.2123       40.2637      28.049288       0.48210
  15     656.4       12.2791        0.0520       38.9372       38.9892      26.710078       0.47536
  14     680.1       12.3594        0.0525       37.7038       37.7563      25.396899       0.46612
  13     703.9       12.4594        0.0529       36.5148       36.5677      24.108317       0.45739
  12     727.7       12.5870        0.0533       35.3478       35.4011      22.814132       0.45938
  11     751.5       12.7548        0.0536       34.1879       34.2415      21.486630       0.47121
  10     775.2       12.9770        0.0538       33.0529       33.1067      20.129707       0.48165
   9     799.0       13.2790        0.0539       31.9455       31.9994      18.720460       0.50022
   8     822.8        9.8129        6.6291       20.5744       27.2035      17.390564       0.47206
   7     846.6        6.6162        9.6915       13.2803       22.9718      16.355621       0.36736
   6     870.4        3.5950       10.5800        8.5910       19.1709      15.575885       0.27677
   5     894.1        0.6739       10.1249        5.5662       15.6912      15.017300       0.19827
   4     917.9        0.6814        9.8393        5.4191       15.2583      14.576985       0.15629
   3     941.7        0.6903        9.5726        5.2797       14.8523      14.162084       0.14727
   2     965.5        0.7009        9.3240        5.1484       14.4724      13.771463       0.13865
   1     989.2        0.7138        9.0919        5.0244       14.1163      13.402525       0.13093
   0    1013.0        0.7296        8.8740        4.9072       13.7813      13.051620       0.12458



 Wavenumbers:  7700. -  8050. cm-1, ATM      1
 LEVEL PRESSURE   UPWARD FLUX   DIFDOWN FLUX  DIRDOWN FLUX  DOWNWARD FLUX   NET FLUX    HEATING RATE
          mb          W/m2          W/m2          W/m2        W/m2          W/m2       degree/day
  60   .000300        5.9069        0.0000       15.1626       15.1626       9.255758       0.00000
  59    0.1000        5.9069        0.0000       15.1625       15.1625       9.255559       0.01686
  58    0.1403        5.9069        0.0000       15.1624       15.1624       9.255478       0.01696
  57    0.1968        5.9069        0.0000       15.1623       15.1623       9.255364       0.01705
  56    0.2760        5.9070        0.0000       15.1622       15.1622       9.255205       0.01691
  55    0.3871        5.9070        0.0000       15.1620       15.1620       9.254981       0.01699
  54    0.5430        5.9071        0.0000       15.1617       15.1617       9.254669       0.01692
  53    0.7617        5.9071        0.0000       15.1613       15.1614       9.254231       0.01688
  52     1.069        5.9073        0.0001       15.1608       15.1609       9.253613       0.01700
  51     1.499        5.9074        0.0001       15.1601       15.1602       9.252754       0.01685
  50     2.102        5.9076        0.0001       15.1591       15.1592       9.251563       0.01665
  49     2.949        5.9079        0.0002       15.1576       15.1578       9.249873       0.01685
  48     4.137        5.9084        0.0002       15.1556       15.1559       9.247501       0.01685
  47     5.803        5.9090        0.0003       15.1528       15.1532       9.244186       0.01679
  46     8.139        5.9098        0.0005       15.1489       15.1494       9.239548       0.01675
  45     11.42        5.9110        0.0006       15.1434       15.1441       9.233057       0.01671
  44     16.01        5.9127        0.0009       15.1358       15.1367       9.223985       0.01665
  43     22.46        5.9150        0.0012       15.1251       15.1263       9.211293       0.01661
  42     31.51        5.9183        0.0017       15.1101       15.1119       9.193544       0.01656
  41     44.20        5.9230        0.0024       15.0892       15.0917       9.168706       0.01652
  40     62.00        5.9295        0.0034       15.0604       15.0638       9.134263       0.01633
  39     85.78        5.9384        0.0047       15.0223       15.0270       9.088633       0.01620
  38     109.5        5.9475        0.0060       14.9841       14.9902       9.042650       0.01632
  37     133.1        5.9564        0.0073       14.9478       14.9551       8.998714       0.01578
  36     156.8        5.9652        0.0085       14.9129       14.9214       8.956266       0.01505
  35     180.6        5.9746        0.0098       14.8763       14.8861       8.911487       0.01590
  34     202.8        5.9838        0.0110       14.8414       14.8525       8.868646       0.01627
  33     228.4        5.9933        0.0123       14.8062       14.8185       8.825178       0.01434
  32     252.2        6.0030        0.0135       14.7713       14.7848       8.781791       0.01540
  31     276.0        6.0128        0.0148       14.7370       14.7518       8.739041       0.01517
  30     299.8        6.0227        0.0160       14.7027       14.7188       8.696032       0.01527
  29     323.5        6.0329        0.0173       14.6685       14.6858       8.652885       0.01532
  28     347.3        6.0433        0.0185       14.6347       14.6533       8.609975       0.01523
  27     371.1        6.0537        0.0197       14.6014       14.6211       8.567393       0.01511
  26     394.9        6.0646        0.0210       14.5675       14.5885       8.523879       0.01545
  25     418.6        6.0758        0.0222       14.5336       14.5558       8.479995       0.01558
  24     442.4        6.0874        0.0234       14.4995       14.5230       8.435579       0.01577
  23     466.2        6.0993        0.0246       14.4651       14.4898       8.390443       0.01602
  22     489.9        6.1115        0.0258       14.4307       14.4566       8.345049       0.01611
  21     513.7        6.1243        0.0271       14.3957       14.4227       8.298433       0.01655
  20     537.5        6.1375        0.0282       14.3603       14.3886       8.251115       0.01680
  19     561.3        6.1511        0.0294       14.3246       14.3540       8.202887       0.01712
  18     585.0        6.1656        0.0306       14.2875       14.3182       8.152547       0.01787
  17     608.8        6.1806        0.0318       14.2500       14.2818       8.101185       0.01823
  16     632.6        6.1963        0.0329       14.2119       14.2449       8.048627       0.01866
  15     656.4        6.2129        0.0341       14.1722       14.2063       7.993387       0.01961
  14     680.1        6.2306        0.0353       14.1314       14.1666       7.936048       0.02035
  13     703.9        6.2493        0.0364       14.0891       14.1255       7.876227       0.02123
  12     727.7        6.2695        0.0375       14.0446       14.0821       7.812627       0.02258
  11     751.5        6.2916        0.0386       13.9973       14.0359       7.744302       0.02425
  10     775.2        6.3157        0.0397       13.9473       13.9871       7.671335       0.02590
   9     799.0        6.3422        0.0408       13.8944       13.9352       7.593075       0.02778
   8     822.8        4.7745        3.0691        9.2197       12.2888       7.514284       0.02797
   7     846.6        3.2740        4.6010        6.1179       10.7189       7.444892       0.02463
   6     870.4        1.8181        5.1469        4.0578        9.2047       7.386579       0.02070
   5     894.1        0.3914        5.0402        2.6915        7.7317       7.340363       0.01640
   4     917.9        0.3928        5.0132        2.6792        7.6925       7.299670       0.01444
   3     941.7        0.3944        4.9854        2.6666        7.6519       7.257562       0.01495
   2     965.5        0.3961        4.9568        2.6535        7.6103       7.214263       0.01537
   1     989.2        0.3979        4.9275        2.6402        7.5676       7.169762       0.01579
   0    1013.0        0.3999        4.8975        2.6264        7.5239       7.124038       0.01623



 Wavenumbers:  8050. - 12850. cm-1, ATM      1
 LEVEL PRESSURE   UPWARD FLUX   DIFDOWN FLUX  DIRDOWN FLUX  DOWNWARD FLUX   NET FLUX    HEATING RATE
          mb          W/m2          W/m2          W/m2        W/m2          W/m2       degree/day
  60   .000300       74.0094        0.0000      212.2880      212.2880     138.278602       0.00000
  59    0.1000       74.0092        0.0003      212.2876      212.2878     138.278602       0.00000
  58    0.1403       74.0092        0.0004      212.2874      212.2878     138.278602       0.00000
  57    0.1968       74.0091        0.0005      212.2872      212.2877     138.278602      -0.00000
  56    0.2760       74.0090        0.0007      212.2869      212.2876     138.278602       0.00000
  55    0.3871       74.0089        0.0010      212.2864      212.2875     138.278602      -0.00000
  54    0.5430       74.0087        0.0014      212.2858      212.2873     138.278602      -0.00000
  53    0.7617       74.0084        0.0020      212.2850      212.2870     138.278602       0.00000
  52     1.069       74.0080        0.0028      212.2837      212.2866     138.278602       0.00000
  51     1.499       74.0074        0.0040      212.2820      212.2860     138.278602       0.00000
  50     2.102       74.0066        0.0056      212.2797      212.2853     138.278602       0.00000
  49     2.949       74.0056        0.0078      212.2763      212.2842     138.278602      -0.00000
  48     4.137       74.0040        0.0110      212.2717      212.2826     138.278602       0.00000
  47     5.803       74.0019        0.0154      212.2651      212.2805     138.278602       0.00000
  46     8.139       73.9988        0.0215      212.2559      212.2774     138.278602      -0.00000
  45     11.42       73.9946        0.0302      212.2430      212.2732     138.278602       0.00000
  44     16.01       73.9887        0.0423      212.2250      212.2673     138.278602       0.00000
  43     22.46       73.9804        0.0592      212.1998      212.2590     138.278602      -0.00000
  42     31.51       73.9687        0.0830      212.1643      212.2473     138.278602       0.00000
  41     44.20       73.9523        0.1164      212.1145      212.2309     138.278602       0.00000
  40     62.00       73.9295        0.1631      212.0450      212.2081     138.278602       0.00000
  39     85.78       73.8989        0.2253      211.9522      212.1775     138.278602      -0.00000
  38     109.5       73.8682        0.2886      211.8451      212.1338     138.265533       0.00464
  37     133.1       73.8386        0.3495      211.7421      212.0917     138.253020       0.00449
  36     156.8       73.8098        0.4088      211.6412      212.0500     138.240190       0.00455
  35     180.6       73.7791        0.4718      211.5292      212.0010     138.221896       0.00649
  34     202.8       73.7497        0.5325      211.4041      211.9366     138.186932       0.01328
  33     228.4       73.7199        0.5943      211.2349      211.8292     138.109359       0.02559
  32     252.2       73.6906        0.6562      211.0003      211.6565     137.965899       0.05092
  31     276.0       73.6628        0.7171      210.6760      211.3931     137.730309       0.08362
  30     299.8       73.6367        0.7783      210.2328      211.0110     137.374332       0.12636
  29     323.5       73.6134        0.8392      209.6743      210.5135     136.900154       0.16831
  28     347.3       73.5941        0.8992      209.0175      209.9167     136.322611       0.20500
  27     371.1       73.5797        0.9580      208.2872      209.2452     135.665536       0.23323
  26     394.9       73.5711        1.0171      207.4416      208.4587     134.887621       0.27613
  25     418.6       73.5699        1.0753      206.4758      207.5512     133.981303       0.32171
  24     442.4       73.5779        1.1328      205.3737      206.5064     132.928519       0.37370
  23     466.2       73.5964        1.1895      204.1488      205.3383     131.741947       0.42118
  22     489.9       73.6269        1.2448      202.8236      204.0684     130.441564       0.46158
  21     513.7       73.6728        1.2995      201.3667      202.6662     128.993403       0.51404
  20     537.5       73.7369        1.3525      199.7935      201.1460     127.409178       0.56233
  19     561.3       73.8226        1.4041      198.0998      199.5038     125.681211       0.61336
  18     585.0       73.9343        1.4552      196.2781      197.7333     123.799000       0.66811
  17     608.8       74.0727        1.5048      194.3934      195.8982     121.825545       0.70050
  16     632.6       74.2421        1.5529      192.4530      194.0058     119.763690       0.73187
  15     656.4       74.4557        1.6003      190.4000      192.0003     117.544549       0.78770
  14     680.1       74.7227        1.6458      188.2528      189.8986     115.175859       0.84079
  13     703.9       75.0551        1.6894      186.0204      187.7098     112.654675       0.89492
  12     727.7       75.4769        1.7316      183.6647      185.3963     109.919413       0.97091
  11     751.5       76.0242        1.7720      181.1466      182.9186     106.894390       1.07376
  10     775.2       76.7307        1.8099      178.4925      180.3023     103.571646       1.17944
   9     799.0       77.6520        1.8452      175.7106      177.5558      99.903775       1.30194
   8     822.8       58.0108       39.0998      115.1370      154.2368      96.226035       1.30545
   7     846.6       39.5011       57.2007       75.4730      132.6737      93.172565       1.08386
   6     870.4       21.7425       62.9908       49.4970      112.4878      90.745308       0.86158
   5     894.1        4.4405       60.8994       32.4721       93.3715      88.930965       0.64402
   4     917.9        4.4578       59.9176       31.9799       91.8975      87.439694       0.52934
   3     941.7        4.4807       58.9663       31.4982       90.4645      85.983801       0.51678
   2     965.5        4.5102       58.0488       31.0297       89.0785      84.568302       0.50244
   1     989.2        4.5476       57.1618       30.5741       87.7359      83.188256       0.48976
   0    1013.0        4.5949       56.3033       30.1302       86.4336      81.838713       0.47913



 Wavenumbers: 12850. - 16000. cm-1, ATM      1
 LEVEL PRESSURE   UPWARD FLUX   DIFDOWN FLUX  DIRDOWN FLUX  DOWNWARD FLUX   NET FLUX    HEATING RATE
          mb          W/m2          W/m2          W/m2        W/m2          W/m2       degree/day
  60   .000300       55.4767        0.0000      133.0172      133.0172      77.540451       0.00000
  59    0.1000       55.4766        0.0006      133.0095      133.0101      77.533532       0.58565
  58    0.1403       55.4766        0.0008      133.0064      133.0073      77.530694       0.59434
  57    0.1968       55.4766        0.0011      133.0021      133.0033      77.526686       0.59873
  56    0.2760       55.4767        0.0016      132.9962      132.9978      77.521119       0.59314
  55    0.3871       55.4768        0.0022      132.9880      132.9902      77.513381       0.58779
  54    0.5430       55.4772        0.0031      132.9769      132.9800      77.502797       0.57292
  53    0.7617       55.4781        0.0044      132.9618      132.9662      77.488148       0.56526
  52     1.069       55.4798        0.0062      132.9413      132.9475      77.467616       0.56477
  51     1.499       55.4833        0.0087      132.9135      132.9222      77.438841       0.56436
  50     2.102       55.4901        0.0121      132.8748      132.8869      77.396832       0.58734
  49     2.949       55.5035        0.0170      132.8176      132.8345      77.331056       0.65567
  48     4.137       55.5272        0.0238      132.7325      132.7563      77.229090       0.72457
  47     5.803       55.5640        0.0333      132.6115      132.6448      77.080821       0.75110
  46     8.139       55.6142        0.0467      132.4493      132.4960      76.881837       0.71864
  45     11.42       55.6766        0.0653      132.2424      132.3078      76.631171       0.64537
  44     16.01       55.7515        0.0914      131.9828      132.0741      76.322595       0.56640
  43     22.46       55.8395        0.1278      131.6592      131.7870      75.947487       0.49084
  42     31.51       55.9334        0.1788      131.2747      131.4535      75.520108       0.39869
  41     44.20       56.0174        0.2502      130.8450      131.0953      75.077872       0.29410
  40     62.00       56.0841        0.3497      130.3669      130.7166      74.632502       0.21116
  39     85.78       56.1097        0.4824      129.8828      130.3652      74.255576       0.13379
  38     109.5       56.1117        0.6180      129.4797      130.0977      73.986001       0.09569
  37     133.1       56.1025        0.7482      129.1217      129.8699      73.767466       0.07848
  36     156.8       56.0875        0.8746      128.7892      129.6639      73.576373       0.06776
  35     180.6       56.0636        1.0088      128.4511      129.4599      73.396306       0.06393
  34     202.8       56.0329        1.1377      128.1377      129.2754      73.242446       0.05842
  33     228.4       55.9981        1.2689      127.8216      129.0904      73.092344       0.04952
  32     252.2       55.9613        1.4001      127.5049      128.9051      72.943799       0.05273
  31     276.0       55.9231        1.5296      127.1922      128.7218      72.798647       0.05152
  30     299.8       55.8839        1.6598      126.8751      128.5350      72.651113       0.05237
  29     323.5       55.8450        1.7901      126.5537      128.3438      72.498810       0.05406
  28     347.3       55.8075        1.9188      126.2298      128.1486      72.341136       0.05597
  27     371.1       55.7718        2.0457      125.9047      127.9504      72.178647       0.05768
  26     394.9       55.7375        2.1740      125.5688      127.7428      72.005270       0.06154
  25     418.6       55.7059        2.3016      125.2257      127.5273      71.821377       0.06527
  24     442.4       55.6777        2.4287      124.8736      127.3023      71.624572       0.06986
  23     466.2       55.6531        2.5557      124.5111      127.0668      71.413739       0.07484
  22     489.9       55.6330        2.6808      124.1420      126.8229      71.189919       0.07945
  21     513.7       55.6181        2.8062      123.7577      126.5638      70.945726       0.08668
  20     537.5       55.6099        2.9298      123.3614      126.2912      70.681328       0.09385
  19     561.3       55.6093        3.0518      122.9509      126.0026      70.393340       0.10222
  18     585.0       55.6170        3.1747      122.5175      125.6923      70.075307       0.11289
  17     608.8       55.6321        3.2957      122.0752      125.3709      69.738825       0.11944
  16     632.6       55.6557        3.4147      121.6228      125.0375      69.381853       0.12671
  15     656.4       55.6903        3.5340      121.1473      124.6814      68.991084       0.13871
  14     680.1       55.7384        3.6511      120.6531      124.3042      68.565803       0.15096
  13     703.9       55.8025        3.7658      120.1376      123.9033      68.100822       0.16505
  12     727.7       55.8874        3.8796      119.5892      123.4688      67.581345       0.18439
  11     751.5       55.9981        3.9924      119.0038      122.9962      66.998116       0.20702
  10     775.2       56.1387        4.1025      118.3848      122.4873      66.348648       0.23053
   9     799.0       56.3156        4.2097      117.7284      121.9381      65.622440       0.25777
   8     822.8       42.7600       29.6631       77.9710      107.6342      64.874196       0.26560
   7     846.6       29.7924       42.3754       51.6382       94.0136      64.221139       0.23181
   6     870.4       17.2120       46.6941       34.1948       80.8889      63.676872       0.19319
   5     894.1        4.8863       45.4930       22.6437       68.1367      63.250359       0.15139
   4     917.9        4.8600       45.2367       22.5033       67.7401      62.880099       0.13143
   3     941.7        4.8354       44.9774       22.3612       67.3386      62.503223       0.13378
   2     965.5        4.8130       44.7167       22.2185       66.9352      62.122179       0.13525
   1     989.2        4.7930       44.4550       22.0754       66.5305      61.737421       0.13654
   0    1013.0        4.7757       44.1925       21.9320       66.1246      61.348868       0.13795



 Wavenumbers: 16000. - 22650. cm-1, ATM      1
 LEVEL PRESSURE   UPWARD FLUX   DIFDOWN FLUX  DIRDOWN FLUX  DOWNWARD FLUX   NET FLUX    HEATING RATE
          mb          W/m2          W/m2          W/m2        W/m2          W/m2       degree/day
  60   .000300       98.4086        0.0000      212.0812      212.0812     113.672581       0.00000
  59    0.1000       98.4077        0.0032      212.0760      212.0792     113.671501       0.09147
  58    0.1403       98.4075        0.0045      212.0737      212.0782     113.670635       0.18128
  57    0.1968       98.4074        0.0063      212.0701      212.0764     113.669069       0.23387
  56    0.2760       98.4073        0.0088      212.0648      212.0737     113.666316       0.29338
  55    0.3871       98.4076        0.0124      212.0569      212.0693     113.661674       0.35260
  54    0.5430       98.4084        0.0174      212.0449      212.0623     113.653890       0.42133
  53    0.7617       98.4105        0.0244      212.0263      212.0506     113.640156       0.52998
  52     1.069       98.4153        0.0342      211.9965      212.0308     113.615465       0.67917
  51     1.499       98.4255        0.0479      211.9488      211.9967     113.571263       0.86691
  50     2.102       98.4464        0.0669      211.8701      211.9370     113.490618       1.12753
  49     2.949       98.4886        0.0938      211.7353      211.8291     113.340508       1.49634
  48     4.137       98.5648        0.1315      211.5152      211.6468     113.081936       1.83743
  47     5.803       98.6836        0.1842      211.1861      211.3702     112.686643       2.00248
  46     8.139       98.8455        0.2578      210.7354      210.9931     112.147683       1.94649
  45     11.42       99.0456        0.3606      210.1559      210.5165     111.470858       1.74258
  44     16.01       99.2837        0.5041      209.4264      209.9305     110.646763       1.51264
  43     22.46       99.5597        0.7047      208.5155      209.2202     109.660498       1.29057
  42     31.51       99.8461        0.9849      207.4281      208.4130     108.566900       1.02018
  41     44.20      100.0861        1.3771      206.1997      207.5768     107.490694       0.71572
  40     62.00      100.2491        1.9217      204.7997      206.7215     106.472323       0.48282
  39     85.78      100.2519        2.6458      203.3150      205.9608     105.708958       0.27096
  38     109.5      100.1343        3.3775      202.0234      205.4008     105.266560       0.15703
  37     133.1       99.9896        4.0771      200.8408      204.9179     104.928339       0.12146
  36     156.8       99.8313        4.7533      199.7260      204.4794     104.648026       0.09940
  35     180.6       99.6402        5.4677      198.5859      204.0537     104.413448       0.08328
  34     202.8       99.4340        6.1517      197.5309      203.6825     104.248526       0.06262
  33     228.4       99.2122        6.8450      196.4789      203.3239     104.111646       0.04516
  32     252.2       98.9828        7.5359      195.4408      202.9767     103.993920       0.04179
  31     276.0       98.7490        8.2146      194.4310      202.6456     103.896540       0.03457
  30     299.8       98.5080        8.8946      193.4267      202.3212     103.813271       0.02956
  29     323.5       98.2638        9.5718      192.4286      202.0003     103.736498       0.02725
  28     347.3       98.0198       10.2389      191.4464      201.6853     103.665462       0.02522
  27     371.1       97.7771       10.8936      190.4836      201.3771     103.600059       0.02322
  26     394.9       97.5294       11.5534      189.5132      201.0667     103.537205       0.02231
  25     418.6       97.2815       12.2077      188.5503      200.7580     103.476455       0.02156
  24     442.4       97.0331       12.8574      187.5927      200.4500     103.416970       0.02111
  23     466.2       96.7834       13.5047      186.6371      200.1418     103.358459       0.02077
  22     489.9       96.5360       14.1410      185.6961      199.8371     103.301112       0.02036
  21     513.7       96.2871       14.7770      184.7529      199.5299     103.242880       0.02067
  20     537.5       96.0407       15.4034      183.8209      199.2243     103.183519       0.02107
  19     561.3       95.7968       16.0210      182.8981      198.9191     103.122266       0.02174
  18     585.0       95.5502       16.6435      181.9641      198.6077     103.057456       0.02300
  17     608.8       95.3067       17.2561      181.0409      198.2970     102.990272       0.02385
  16     632.6       95.0665       17.8591      180.1276      197.9868     102.920234       0.02486
  15     656.4       94.8251       18.4650      179.2047      197.6697     102.844666       0.02682
  14     680.1       94.5878       19.0616      178.2893      197.3510     102.763112       0.02895
  13     703.9       94.3553       19.6492      177.3803      197.0295     102.674211       0.03156
  12     727.7       94.1246       20.2365      176.4629      196.6994     102.574826       0.03528
  11     751.5       93.8970       20.8235      175.5353      196.3587     102.461766       0.04013
  10     775.2       93.6761       21.4027      174.6074      196.0102     102.334083       0.04532
   9     799.0       93.4630       21.9743      173.6783      195.6526     102.189590       0.05129
   8     822.8       71.8954       58.8515      115.0815      173.9330     102.037644       0.05393
   7     846.6       51.0989       76.7459       76.2539      152.9998     101.900941       0.04852
   6     870.4       30.8154       82.0728       50.5263      132.5991     101.783695       0.04162
   5     894.1       10.8718       79.0818       33.4790      112.5608     101.688997       0.03361
   4     917.9       10.6395       78.9490       33.2947      112.2437     101.604159       0.03011
   3     941.7       10.4071       78.8130       33.1101      111.9231     101.516003       0.03129
   2     965.5       10.1762       78.6750       32.9266      111.6015     101.425272       0.03221
   1     989.2        9.9469       78.5350       32.7442      111.2792     101.332265       0.03301
   0    1013.0        9.7192       78.3934       32.5629      110.9563     101.237161       0.03377



 Wavenumbers: 22650. - 29000. cm-1, ATM      1
 LEVEL PRESSURE   UPWARD FLUX   DIFDOWN FLUX  DIRDOWN FLUX  DOWNWARD FLUX   NET FLUX    HEATING RATE
          mb          W/m2          W/m2          W/m2        W/m2          W/m2       degree/day
  60   .000300       43.8463        0.0000       80.0317       80.0317      36.185375       0.00000
  59    0.1000       43.8451        0.0038       80.0267       80.0305      36.185375      -0.00000
  58    0.1403       43.8446        0.0053       80.0247       80.0300      36.185375       0.00000
  57    0.1968       43.8439        0.0075       80.0218       80.0293      36.185375      -0.00000
  56    0.2760       43.8429        0.0105       80.0178       80.0283      36.185375      -0.00000
  55    0.3871       43.8416        0.0147       80.0122       80.0269      36.185375       0.00000
  54    0.5430       43.8396        0.0207       80.0043       80.0250      36.185375       0.00000
  53    0.7617       43.8370        0.0290       79.9933       80.0223      36.185375      -0.00000
  52     1.069       43.8332        0.0407       79.9778       80.0185      36.185375       0.00000
  51     1.499       43.8279        0.0570       79.9562       80.0132      36.185375       0.00000
  50     2.102       43.8206        0.0796       79.9263       80.0059      36.185375      -0.00000
  49     2.949       43.8102        0.1116       79.8839       79.9955      36.185375      -0.00000
  48     4.137       43.7956        0.1566       79.8244       79.9810      36.185375       0.00000
  47     5.803       43.7752        0.2193       79.7412       79.9606      36.185375       0.00000
  46     8.139       43.7466        0.3071       79.6249       79.9320      36.185375       0.00000
  45     11.42       43.7066        0.4297       79.4623       79.8920      36.185375      -0.00000
  44     16.01       43.6507        0.6008       79.2352       79.8361      36.185375       0.00000
  43     22.46       43.5722        0.8397       78.9179       79.7576      36.185375       0.00000
  42     31.51       43.4623        1.1725       78.4751       79.6476      36.185375      -0.00000
  41     44.20       43.3079        1.6360       77.8573       79.4932      36.185375       0.00000
  40     62.00       43.0927        2.2743       77.0038       79.2781      36.185375       0.00000
  39     85.78       42.8058        3.1120       75.8793       78.9912      36.185375       0.00000
  38     109.5       42.5148        3.9463       74.7539       78.7002      36.185375       0.00000
  37     133.1       42.2351        4.7335       73.6869       78.4204      36.185375       0.00000
  36     156.8       41.9633        5.4849       72.6637       78.1486      36.185375       0.00000
  35     180.6       41.6748        6.2680       71.5922       77.8601      36.185375      -0.00000
  34     202.8       41.3973        7.0070       70.5757       77.5827      36.185375       0.00000
  33     228.4       41.1147        7.7459       69.5542       77.3001      36.185375       0.00000
  32     252.2       40.8317        8.4722       68.5449       77.0170      36.185375       0.00000
  31     276.0       40.5522        9.1757       67.5619       76.7376      36.185375      -0.00000
  30     299.8       40.2708        9.8706       66.5855       76.4562      36.185375       0.00000
  29     323.5       39.9890       10.5531       65.6212       76.1744      36.185375      -0.00000
  28     347.3       39.7099       11.2161       64.6791       75.8953      36.185375       0.00000
  27     371.1       39.4345       11.8577       63.7621       75.6199      36.185375       0.00000
  26     394.9       39.1554       12.4954       62.8455       75.3408      36.185375       0.00000
  25     418.6       38.8772       13.1186       61.9439       75.0625      36.185375      -0.00000
  24     442.4       38.5992       13.7288       61.0558       74.7846      36.185375       0.00000
  23     466.2       38.3207       14.3280       60.1781       74.5061      36.185375      -0.00000
  22     489.9       38.0455       14.9085       59.3223       74.2308      36.185375       0.00000
  21     513.7       37.7686       15.4805       58.4735       73.9540      36.185375       0.00000
  20     537.5       37.4944       16.0356       57.6441       73.6798      36.185375      -0.00000
  19     561.3       37.2223       16.5752       56.8325       73.4077      36.185375      -0.00000
  18     585.0       36.9464       17.1111       56.0207       73.1318      36.185375       0.00000
  17     608.8       36.6732       17.6307       55.2278       72.8586      36.185375      -0.00000
  16     632.6       36.4025       18.1348       54.4531       72.5879      36.185375       0.00000
  15     656.4       36.1289       18.6338       53.6804       72.3142      36.185375       0.00000
  14     680.1       35.8575       19.1180       52.9249       72.0429      36.185375      -0.00000
  13     703.9       35.5885       19.5880       52.1859       71.7739      36.185375       0.00000
  12     727.7       35.3176       20.0510       51.4520       71.5030      36.185375      -0.00000
  11     751.5       35.0449       20.5071       50.7232       71.2303      36.185375       0.00000
  10     775.2       34.7736       20.9507       50.0082       70.9589      36.185375       0.00000
   9     799.0       34.5037       21.3823       49.3067       70.6890      36.185375      -0.00000
   8     822.8       26.8255       30.6258       32.3851       63.0109      36.185330       0.00002
   7     846.6       19.3695       34.2836       21.2712       55.5547      36.185291       0.00001
   6     870.4       12.0606       34.2737       13.9721       48.2458      36.185259       0.00001
   5     894.1        4.8486       31.8560        9.1778       41.0339      36.185234       0.00001
   4     917.9        4.5984       31.7350        9.0487       40.7837      36.185234       0.00000
   3     941.7        4.3476       31.6116        8.9212       40.5328      36.185234       0.00000
   2     965.5        4.0979       31.4870        8.7962       40.2832      36.185234       0.00000
   1     989.2        3.8495       31.3611        8.6736       40.0347      36.185234      -0.00000
   0    1013.0        3.6023       31.2341        8.5535       39.7875      36.185234       0.00000



 Wavenumbers: 29000. - 38000. cm-1, ATM      1
 LEVEL PRESSURE   UPWARD FLUX   DIFDOWN FLUX  DIRDOWN FLUX  DOWNWARD FLUX   NET FLUX    HEATING RATE
          mb          W/m2          W/m2          W/m2        W/m2          W/m2       degree/day
  60   .000300        7.7095        0.0000       28.2225       28.2225      20.513019       0.00000
  59    0.1000        7.7078        0.0028       28.1859       28.1887      20.480981       2.71192
  58    0.1403        7.7071        0.0040       28.1585       28.1625      20.455404       5.35588
  57    0.1968        7.7063        0.0056       28.1101       28.1157      20.409442       6.86513
  56    0.2760        7.7053        0.0078       28.0271       28.0349      20.329665       8.50064
  55    0.3871        7.7039        0.0109       27.8913       27.9022      20.198287       9.97945
  54    0.5430        7.7023        0.0151       27.6738       27.6889      19.986515      11.46361
  53    0.7617        7.7007        0.0207       27.3185       27.3393      19.638594      13.42551
  52     1.069        7.6992        0.0282       26.7574       26.7856      19.086351      15.19053
  51     1.499        7.6989        0.0378       25.9466       25.9844      18.285519      15.70612
  50     2.102        7.7014        0.0499       24.8886       24.9384      17.237016      14.65949
  49     2.949        7.7103        0.0657       23.6539       23.7195      16.009292      12.23829
  48     4.137        7.7296        0.0864       22.3800       22.4664      14.736810       9.04232
  47     5.803        7.7620        0.1140       21.1533       21.2673      13.505256       6.23883
  46     8.139        7.8076        0.1511       20.0304       20.1816      12.374006       4.08558
  45     11.42        7.8649        0.2015       19.0179       19.2195      11.354574       2.62467
  44     16.01        7.9348        0.2696       18.0801       18.3497      10.414891       1.72480
  43     22.46        8.0195        0.3619       17.1858       17.5477       9.528189       1.16028
  42     31.51        8.1120        0.4876       16.3448       16.8324       8.720446       0.75351
  41     44.20        8.1927        0.6606       15.5663       16.2269       8.034297       0.45632
  40     62.00        8.2501        0.8960       14.8065       15.7025       7.452355       0.27591
  39     85.78        8.2477        1.2032       14.0925       15.2957       7.047994       0.14353
  38     109.5        8.1992        1.5071       13.5167       15.0238       6.824674       0.07927
  37     133.1        8.1426        1.7873       13.0134       14.8007       6.658048       0.05984
  36     156.8        8.0832        2.0482       12.5564       14.6047       6.521476       0.04843
  35     180.6        8.0124        2.3155       12.1053       14.4208       6.408430       0.04013
  34     202.8        7.9361        2.5640       11.7016       14.2656       6.329470       0.02998
  33     228.4        7.8545        2.8076       11.3112       14.1188       6.264280       0.02151
  32     252.2        7.7708        3.0421       10.9372       13.9793       6.208531       0.01979
  31     276.0        7.6858        3.2647       10.5839       13.8486       6.162800       0.01623
  30     299.8        7.5986        3.4803       10.2424       13.7227       6.124159       0.01372
  29     323.5        7.5106        3.6871        9.9126       13.5998       6.089139       0.01243
  28     347.3        7.4232        3.8834        9.5973       13.4807       6.057433       0.01125
  27     371.1        7.3366        4.0690        9.2967       13.3656       6.029049       0.01008
  26     394.9        7.2485        4.2491        9.0022       13.2512       6.002739       0.00934
  25     418.6        7.1606        4.4208        8.7182       13.1389       5.978352       0.00866
  24     442.4        7.0727        4.5847        8.4437       13.0283       5.955675       0.00805
  23     466.2        6.9845        4.7416        8.1775       12.9191       5.934658       0.00746
  22     489.9        6.8972        4.8897        7.9229       12.8126       5.915399       0.00684
  21     513.7        6.8094        5.0318        7.6749       12.7066       5.897282       0.00643
  20     537.5        6.7224        5.1659        7.4369       12.6027       5.880309       0.00602
  19     561.3        6.6362        5.2926        7.2080       12.5006       5.864354       0.00566
  18     585.0        6.5489        5.4148        6.9831       12.3978       5.848947       0.00547
  17     608.8        6.4625        5.5297        6.7672       12.2969       5.834362       0.00518
  16     632.6        6.3770        5.6377        6.5598       12.1976       5.820533       0.00491
  15     656.4        6.2907        5.7413        6.3565       12.0978       5.807137       0.00476
  14     680.1        6.2052        5.8385        6.1611       11.9996       5.794400       0.00452
  13     703.9        6.1205        5.9296        5.9732       11.9028       5.782274       0.00430
  12     727.7        6.0353        6.0162        5.7897       11.8059       5.770548       0.00416
  11     751.5        5.9496        6.0983        5.6105       11.7088       5.759214       0.00402
  10     775.2        5.8645        6.1751        5.4377       11.6129       5.748391       0.00384
   9     799.0        5.7799        6.2469        5.2710       11.5179       5.738046       0.00367
   8     822.8        4.5539        6.8792        3.4033       10.2825       5.728561       0.00337
   7     846.6        3.3542        6.8774        2.1975        9.0748       5.720589       0.00283
   6     870.4        2.1720        6.4670        1.4191        7.8861       5.714127       0.00229
   5     894.1        1.0012        5.7938        0.9165        6.7103       5.709112       0.00178
   4     917.9        0.9185        5.7352        0.8882        6.6234       5.704864       0.00151
   3     941.7        0.8357        5.6757        0.8608        6.5365       5.700788       0.00145
   2     965.5        0.7533        5.6158        0.8344        6.4502       5.696909       0.00138
   1     989.2        0.6713        5.5556        0.8089        6.3645       5.693216       0.00131
   0    1013.0        0.5897        5.4951        0.7843        6.2794       5.689701       0.00125



 Wavenumbers: 38000. - 50000. cm-1, ATM      1
 LEVEL PRESSURE   UPWARD FLUX   DIFDOWN FLUX  DIRDOWN FLUX  DOWNWARD FLUX   NET FLUX    HEATING RATE
          mb          W/m2          W/m2          W/m2        W/m2          W/m2       degree/day
  60   .000300        0.0069        0.0000        1.7407        1.7407       1.733864       0.00000
  59    0.1000        0.0063        0.0006        1.7198        1.7204       1.714069       1.67562
  58    0.1403        0.0061        0.0008        1.7047        1.7056       1.699408       3.07012
  57    0.1968        0.0059        0.0012        1.6784        1.6796       1.673683       3.84232
  56    0.2760        0.0056        0.0016        1.6341        1.6357       1.630132       4.64062
  55    0.3871        0.0051        0.0021        1.5634        1.5655       1.560405       5.29648
  54    0.5430        0.0046        0.0028        1.4543        1.4571       1.452495       5.84133
  53    0.7617        0.0039        0.0034        1.2861        1.2895       1.285598       6.44019
  52     1.069        0.0031        0.0037        1.0457        1.0495       1.046342       6.58121
  51     1.499        0.0024        0.0037        0.7523        0.7559       0.753565       5.74202
  50     2.102        0.0017        0.0031        0.4664        0.4695       0.467843       3.99478
  49     2.949        0.0012        0.0024        0.2581        0.2604       0.259286       2.07895
  48     4.137        0.0008        0.0017        0.1381        0.1398       0.139011       0.85468
  47     5.803        0.0005        0.0013        0.0728        0.0741       0.073572       0.33150
  46     8.139        0.0003        0.0009        0.0388        0.0397       0.039349       0.12360
  45     11.42        0.0002        0.0006        0.0198        0.0204       0.020194       0.04932
  44     16.01        0.0001        0.0004        0.0090        0.0093       0.009236       0.02011
  43     22.46        0.0000        0.0002        0.0034        0.0036       0.003591       0.00739
  42     31.51        0.0000        0.0001        0.0011        0.0012       0.001179       0.00225
  41     44.20        0.0000        0.0000        0.0003        0.0003       0.000327       0.00057
  40     62.00        0.0000        0.0000        0.0001        0.0001       0.000070       0.00012
  39     85.78        0.0000        0.0000        0.0000        0.0000       0.000012       0.00002
  38     109.5        0.0000        0.0000        0.0000        0.0000       0.000002       0.00000
  37     133.1        0.0000        0.0000        0.0000        0.0000       0.000000       0.00000
  36     156.8        0.0000        0.0000        0.0000        0.0000       0.000000       0.00000
  35     180.6        0.0000        0.0000        0.0000        0.0000       0.000000       0.00000
  34     202.8        0.0000        0.0000        0.0000        0.0000       0.000000       0.00000
  33     228.4        0.0000        0.0000        0.0000        0.0000       0.000000       0.00000
  32     252.2        0.0000        0.0000        0.0000        0.0000       0.000000       0.00000
  31     276.0        0.0000        0.0000        0.0000        0.0000       0.000000       0.00000
  30     299.8        0.0000        0.0000        0.0000        0.0000       0.000000       0.00000
  29     323.5        0.0000        0.0000        0.0000        0.0000       0.000000       0.00000
  28     347.3        0.0000        0.0000        0.0000        0.0000       0.000000       0.00000
  27     371.1        0.0000        0.0000        0.0000        0.0000       0.000000       0.00000
  26     394.9        0.0000        0.0000        0.0000        0.0000       0.000000       0.00000
  25     418.6        0.0000        0.0000        0.0000        0.0000       0.000000       0.00000
  24     442.4        0.0000        0.0000        0.0000        0.0000       0.000000       0.00000
  23     466.2        0.0000        0.0000        0.0000        0.0000       0.000000       0.00000
  22     489.9        0.0000        0.0000        0.0000        0.0000       0.000000       0.00000
  21     513.7        0.0000        0.0000        0.0000        0.0000       0.000000       0.00000
  20     537.5        0.0000        0.0000        0.0000        0.0000       0.000000       0.00000
  19     561.3        0.0000        0.0000        0.0000        0.0000       0.000000       0.00000
  18     585.0        0.0000        0.0000        0.0000        0.0000       0.000000       0.00000
  17     608.8        0.0000        0.0000        0.0000        0.0000       0.000000       0.00000
  16     632.6        0.0000        0.0000        0.0000        0.0000       0.000000       0.00000
  15     656.4        0.0000        0.0000        0.0000        0.0000       0.000000       0.00000
  14     680.1        0.0000        0.0000        0.0000        0.0000       0.000000       0.00000
  13     703.9        0.0000        0.0000        0.0000        0.0000       0.000000       0.00000
  12     727.7        0.0000        0.0000        0.0000        0.0000       0.000000       0.00000
  11     751.5        0.0000        0.0000        0.0000        0.0000       0.000000       0.00000
  10     775.2        0.0000        0.0000        0.0000        0.0000       0.000000       0.00000
   9     799.0        0.0000        0.0000        0.0000        0.0000       0.000000       0.00000
   8     822.8        0.0000        0.0000        0.0000        0.0000       0.000000       0.00000
   7     846.6        0.0000        0.0000        0.0000        0.0000       0.000000       0.00000
   6     870.4        0.0000        0.0000        0.0000        0.0000       0.000000       0.00000
   5     894.1        0.0000        0.0000        0.0000        0.0000       0.000000       0.00000
   4     917.9        0.0000        0.0000        0.0000        0.0000       0.000000       0.00000
   3     941.7        0.0000        0.0000        0.0000        0.0000       0.000000       0.00000
   2     965.5        0.0000        0.0000        0.0000        0.0000       0.000000       0.00000
   1     989.2        0.0000        0.0000        0.0000        0.0000       0.000000       0.00000
   0    1013.0        0.0000        0.0000        0.0000        0.0000       0.000000       0.00000



 Wavenumbers:   820. -  2600. cm-1, ATM      1
 LEVEL PRESSURE   UPWARD FLUX   DIFDOWN FLUX  DIRDOWN FLUX  DOWNWARD FLUX   NET FLUX    HEATING RATE
          mb          W/m2          W/m2          W/m2        W/m2          W/m2       degree/day
  60   .000300        0.9708        0.0000        8.1430        8.1430       7.172209       0.00000
  59    0.1000        0.9708        0.0000        8.1331        8.1331       7.162322       0.83688
  58    0.1403        0.9708        0.0000        8.1309        8.1309       7.160183       0.44787
  57    0.1968        0.9708        0.0000        8.1281        8.1281       7.157343       0.42423
  56    0.2760        0.9708        0.0000        8.1245        8.1245       7.153776       0.38013
  55    0.3871        0.9708        0.0000        8.1201        8.1201       7.149314       0.33888
  54    0.5430        0.9708        0.0000        8.1143        8.1143       7.143558       0.31160
  53    0.7617        0.9708        0.0000        8.1063        8.1063       7.135572       0.30818
  52     1.069        0.9708        0.0000        8.0951        8.0951       7.124322       0.30943
  51     1.499        0.9708        0.0000        8.0799        8.0799       7.109132       0.29793
  50     2.102        0.9708        0.0000        8.0595        8.0595       7.088719       0.28540
  49     2.949        0.9708        0.0000        8.0314        8.0314       7.060577       0.28052
  48     4.137        0.9708        0.0000        7.9935        7.9935       7.022726       0.26897
  47     5.803        0.9708        0.0000        7.9444        7.9444       6.973598       0.24887
  46     8.139        0.9708        0.0000        7.8811        7.8811       6.910312       0.22856
  45     11.42        0.9708        0.0000        7.8004        7.8004       6.829575       0.20787
  44     16.01        0.9708        0.0000        7.7070        7.7070       6.736201       0.17139
  43     22.46        0.9709        0.0000        7.6181        7.6181       6.647200       0.11646
  42     31.51        0.9709        0.0000        7.5468        7.5468       6.575883       0.06653
  41     44.20        0.9710        0.0000        7.4816        7.4816       6.510628       0.04340
  40     62.00        0.9711        0.0000        7.3998        7.3998       6.428716       0.03884
  39     85.78        0.9713        0.0000        7.2958        7.2958       6.324545       0.03698
  38     109.5        0.9714        0.0000        7.1946        7.1946       6.223219       0.03597
  37     133.1        0.9716        0.0000        7.1003        7.1003       6.128699       0.03394
  36     156.8        0.9717        0.0000        7.0126        7.0126       6.040903       0.03113
  35     180.6        0.9719        0.0000        6.9166        6.9166       5.944668       0.03417
  34     202.8        0.9722        0.0000        6.8041        6.8042       5.832006       0.04278
  33     228.4        0.9725        0.0000        6.6630        6.6630       5.690565       0.04667
  32     252.2        0.9728        0.0000        6.4917        6.4917       5.518844       0.06095
  31     276.0        0.9733        0.0000        6.3090        6.3091       5.335757       0.06499
  30     299.8        0.9740        0.0000        6.1153        6.1153       5.141305       0.06902
  29     323.5        0.9750        0.0000        5.9197        5.9197       4.944768       0.06976
  28     347.3        0.9762        0.0000        5.7036        5.7036       4.727401       0.07716
  27     371.1        0.9777        0.0000        5.4648        5.4649       4.487151       0.08528
  26     394.9        0.9796        0.0000        5.2059        5.2060       4.226423       0.09255
  25     418.6        0.9817        0.0000        4.9521        4.9521       3.970367       0.09089
  24     442.4        0.9843        0.0000        4.7233        4.7234       3.739080       0.08210
  23     466.2        0.9871        0.0000        4.5370        4.5370       3.549928       0.06714
  22     489.9        0.9903        0.0000        4.3924        4.3925       3.402128       0.05246
  21     513.7        0.9943        0.0000        4.2764        4.2764       3.282174       0.04258
  20     537.5        0.9988        0.0000        4.1775        4.1776       3.178712       0.03672
  19     561.3        1.0043        0.0000        4.0839        4.0840       3.079722       0.03514
  18     585.0        1.0106        0.0000        3.9882        3.9883       2.977640       0.03623
  17     608.8        1.0180        0.0000        3.8907        3.8907       2.872744       0.03723
  16     632.6        1.0265        0.0000        3.7911        3.7912       2.764636       0.03837
  15     656.4        1.0368        0.0000        3.6867        3.6868       2.649977       0.04070
  14     680.1        1.0491        0.0000        3.5795        3.5795       2.530407       0.04244
  13     703.9        1.0640        0.0000        3.4709        3.4710       2.407023       0.04380
  12     727.7        1.0825        0.0000        3.3598        3.3599       2.277368       0.04602
  11     751.5        1.1067        0.0000        3.2443        3.2443       2.137676       0.04959
  10     775.2        1.1382        0.0000        3.1256        3.1256       1.987471       0.05332
   9     799.0        1.1799        0.0000        3.0033        3.0033       1.823461       0.05822
   8     822.8        0.8605        0.6026        1.9177        2.5203       1.659728       0.05812
   7     846.6        0.5710        0.8707        1.2246        2.0954       1.524383       0.04804
   6     870.4        0.3012        0.9353        0.7819        1.7172       1.416075       0.03844
   5     894.1        0.0423        0.8771        0.4988        1.3759       1.333530       0.02930
   4     917.9        0.0440        0.8314        0.4766        1.3079       1.263895       0.02472
   3     941.7        0.0460        0.7857        0.4542        1.2399       1.193910       0.02484
   2     965.5        0.0484        0.7404        0.4317        1.1722       1.123805       0.02488
   1     989.2        0.0512        0.6957        0.4092        1.1049       1.053795       0.02485
   0    1013.0        0.0545        0.6518        0.3868        1.0386       0.984120       0.02474

  Modules and versions used in this calculation:

       rrtmg_sw.1col.f90:  $Revision$                    rrtmg_sw_init.f90:  $Revision$        
     rrtmgsw_cldprop.f90:  $Revision$                  rrtmgsw_cldprmc.f90:  NOT USED          
     rrtmg_sw_reftra.f90:  $Revision$                  rrtmg_sw_spcvrt.f90:  NOT USED          
     rrtmg_sw_spcvmc.f90:  NOT USED                    rrtmgsw_setcoef.f90:  NOT USED          
     rrtmg_sw_taumol.f90:  $Revision$                  rrtmg_sw_vrtqdr.f90:  NOT USED          
                rrtatm.f:  NOT USED                             util_xxx.f:  NOT USED          
                 extra.f:  NOT USED                       rrtmg_sw_k_g.f90:  $Revision$        

