

 Wavenumbers:   820. - 50000. cm-1, ATM      1
 LEVEL PRESSURE   UPWARD FLUX   DIFDOWN FLUX  DIRDOWN FLUX  DOWNWARD FLUX   NET FLUX    HEATING RATE
          mb          W/m2          W/m2          W/m2        W/m2          W/m2       degree/day
  60   .000300      370.7485        0.0000      837.8224      837.8224     467.073864       0.00000
  59    0.1000      370.7444        0.0117      837.7137      837.7254     466.980983       7.86197
  58    0.1403      370.7431        0.0164      837.6563      837.6728     466.929689      10.74131
  57    0.1968      370.7414        0.0231      837.5614      837.5844     466.842988      12.95009
  56    0.2760      370.7396        0.0322      837.4070      837.4393     466.699632      15.27532
  55    0.3871      370.7377        0.0451      837.1641      837.2091     466.471445      17.33302
  54    0.5430      370.7360        0.0628      836.7876      836.8504     466.114421      19.32635
  53    0.7617      370.7358        0.0870      836.1942      836.2812     465.545455      21.95515
  52     1.069      370.7395        0.1204      835.2926      835.4130     464.673532      23.98398
  51     1.499      370.7519        0.1653      834.0471      834.2124     463.460478      23.79071
  50     2.102      370.7832        0.2259      832.4995      832.7254     461.942238      21.22705
  49     2.949      370.8526        0.3106      830.7483      831.0589     460.206250      17.30481
  48     4.137      370.9836        0.4283      828.8944      829.3227     458.339114      13.26796
  47     5.803      371.1913        0.5918      826.9459      827.5377     456.346392      10.09477
  46     8.139      371.4756        0.8192      824.8978      825.7170     454.241464       7.60209
  45     11.42      371.8263        1.1357      822.7006      823.8363     452.009973       5.74528
  44     16.01      372.2420        1.5754      820.2525      821.8279     449.585847       4.44952
  43     22.46      372.7224        2.1872      817.4463      819.6335     446.911099       3.50001
  42     31.51      373.2148        3.0385      814.2518      817.2903     444.075500       2.64523
  41     44.20      373.6063        4.2253      810.6480      814.8732     441.266960       1.86779
  40     62.00      373.8322        5.8643      806.4553      812.3196     438.487407       1.31783
  39     85.78      373.7218        8.0283      801.7674      809.7957     436.073940       0.85668
  38     109.5      373.3913       10.1994      797.4817      807.6811     434.289796       0.63330
  37     133.1      373.0135       12.2562      793.5510      805.8072     432.793710       0.53726
  36     156.8      372.6144       14.2267      789.8548      804.0815     431.467102       0.47042
  35     180.6      372.1467       16.2909      786.0084      802.2993     430.152647       0.46666
  34     202.8      371.6538       18.2507      782.2124      800.4631     428.809237       0.51007
  33     228.4      371.1314       20.2205      778.0467      798.2672     427.135765       0.55214
  32     252.2      370.5978       22.1663      773.4741      795.6404     425.042637       0.74297
  31     276.0      370.0617       24.0616      768.4389      792.5005     422.438754       0.92427
  30     299.8      369.5180       25.9440      762.7642      788.7082     419.190173       1.15311
  29     323.5      368.9780       27.8024      756.6288      784.4312     415.453205       1.32647
  28     347.3      368.4513       29.6173      750.2254      779.8428     411.391485       1.44174
  27     371.1      367.9410       31.3834      743.7251      775.1085     407.167479       1.49935
  26     394.9      367.4373       33.1481      736.8957      770.0438     402.606504       1.61896
  25     418.6      366.9530       34.8827      729.8721      764.7548     397.801758       1.70549
  24     442.4      366.4919       36.5904      722.6783      759.2687     392.776776       1.78366
  23     466.2      366.0546       38.2774      715.4381      753.7155     387.660881       1.81593
  22     489.9      365.6526       39.9211      708.2772      748.1983     382.545756       1.81566
  21     513.7      365.2865       41.5505      701.0441      742.5945     377.308014       1.85918
  20     537.5      364.9709       43.1409      693.8325      736.9734     372.002506       1.88324
  19     561.3      364.7137       44.6960      686.6319      731.3279     366.614151       1.91264
  18     585.0      364.5152       46.2496      679.3701      725.6197     361.104537       1.95569
  17     608.8      364.3868       47.7655      672.2525      720.0180     355.631214       1.94280
  16     632.6      364.3393       49.2450      665.2624      714.5074     350.168156       1.93916
  15     656.4      364.3949       50.7187      658.1915      708.9101     344.515215       2.00656
  14     680.1      364.5854       52.1568      651.1209      703.2778     338.692352       2.06688
  13     703.9      364.9401       53.5605      644.0582      697.6187     332.678607       2.13463
  12     727.7      365.5118       54.9509      636.8758      691.8268     326.315009       2.25882
  11     751.5      366.3878       56.3272      629.4911      685.8183     319.430427       2.44374
  10     775.2      367.6599       57.6722      621.9804      679.6526     311.992633       2.64011
   9     799.0      369.4739       58.9862      614.3441      673.3303     303.856453       2.88801
   8     822.8      276.3966      242.4011      329.8948      572.2959     295.899259       2.82448
   7     846.6      189.5501      301.9516      177.2124      479.1640     289.613883       2.23105
   6     870.4      106.2466      295.9330       95.2246      391.1575     284.910886       1.66937
   5     894.1       24.8379      255.3423       51.1830      306.5253     281.687343       1.14422
   4     917.9       24.3777      253.0019       50.5950      303.5969     279.219191       0.87609
   3     941.7       23.9257      250.7174       50.0184      300.7359     276.810160       0.85511
   2     965.5       23.4872      248.4964       49.4563      297.9526     274.465453       0.83227
   1     989.2       23.0644      246.3334       48.9082      295.2416     272.177217       0.81206
   0    1013.0       22.6603      244.2234       48.3729      292.5963     269.936021       0.79570



 Wavenumbers:  2600. -  3250. cm-1, ATM      1
 LEVEL PRESSURE   UPWARD FLUX   DIFDOWN FLUX  DIRDOWN FLUX  DOWNWARD FLUX   NET FLUX    HEATING RATE
          mb          W/m2          W/m2          W/m2        W/m2          W/m2       degree/day
  60   .000300        1.6077        0.0000        7.3841        7.3841       5.776398       0.00000
  59    0.1000        1.6077        0.0000        7.3840        7.3840       5.776325       0.00613
  58    0.1403        1.6077        0.0000        7.3840        7.3840       5.776296       0.00614
  57    0.1968        1.6077        0.0000        7.3839        7.3839       5.776255       0.00616
  56    0.2760        1.6077        0.0000        7.3839        7.3839       5.776197       0.00613
  55    0.3871        1.6077        0.0000        7.3838        7.3838       5.776113       0.00642
  54    0.5430        1.6077        0.0000        7.3837        7.3837       5.775988       0.00678
  53    0.7617        1.6077        0.0000        7.3835        7.3835       5.775790       0.00761
  52     1.069        1.6077        0.0000        7.3831        7.3831       5.775460       0.00908
  51     1.499        1.6077        0.0000        7.3825        7.3825       5.774852       0.01193
  50     2.102        1.6077        0.0000        7.3814        7.3814       5.773763       0.01522
  49     2.949        1.6077        0.0000        7.3795        7.3795       5.771877       0.01880
  48     4.137        1.6077        0.0000        7.3765        7.3765       5.768863       0.02142
  47     5.803        1.6077        0.0000        7.3721        7.3721       5.764432       0.02245
  46     8.139        1.6077        0.0000        7.3661        7.3661       5.758424       0.02170
  45     11.42        1.6077        0.0000        7.3586        7.3586       5.750916       0.01933
  44     16.01        1.6077        0.0000        7.3500        7.3500       5.742338       0.01575
  43     22.46        1.6077        0.0000        7.3407        7.3407       5.733018       0.01220
  42     31.51        1.6077        0.0000        7.3297        7.3297       5.722043       0.01024
  41     44.20        1.6077        0.0000        7.3134        7.3134       5.705672       0.01089
  40     62.00        1.6078        0.0000        7.2860        7.2860       5.678222       0.01301
  39     85.78        1.6079        0.0000        7.2438        7.2439       5.635949       0.01501
  38     109.5        1.6081        0.0000        7.1969        7.1970       5.588843       0.01672
  37     133.1        1.6083        0.0001        7.1517        7.1518       5.543479       0.01629
  36     156.8        1.6086        0.0001        7.1092        7.1093       5.500736       0.01516
  35     180.6        1.6089        0.0001        7.0662        7.0663       5.457406       0.01538
  34     202.8        1.6092        0.0001        7.0262        7.0262       5.416999       0.01534
  33     228.4        1.6098        0.0001        6.9846        6.9847       5.374928       0.01388
  32     252.2        1.6106        0.0001        6.9407        6.9408       5.330202       0.01588
  31     276.0        1.6116        0.0001        6.8941        6.8942       5.282642       0.01688
  30     299.8        1.6130        0.0001        6.8424        6.8426       5.229623       0.01882
  29     323.5        1.6147        0.0001        6.7849        6.7851       5.170377       0.02103
  28     347.3        1.6169        0.0001        6.7206        6.7208       5.103883       0.02360
  27     371.1        1.6195        0.0002        6.6496        6.6497       5.030200       0.02615
  26     394.9        1.6228        0.0002        6.5676        6.5677       4.944934       0.03027
  25     418.6        1.6268        0.0002        6.4741        6.4743       4.847529       0.03457
  24     442.4        1.6315        0.0002        6.3671        6.3673       4.735785       0.03966
  23     466.2        1.6371        0.0002        6.2486        6.2487       4.611581       0.04409
  22     489.9        1.6437        0.0002        6.1205        6.1207       4.476937       0.04779
  21     513.7        1.6516        0.0002        5.9812        5.9814       4.329798       0.05223
  20     537.5        1.6609        0.0002        5.8338        5.8340       4.173137       0.05561
  19     561.3        1.6718        0.0002        5.6819        5.6821       4.010270       0.05781
  18     585.0        1.6846        0.0002        5.5274        5.5276       3.842988       0.05938
  17     608.8        1.6994        0.0002        5.3761        5.3763       3.676919       0.05895
  16     632.6        1.7162        0.0002        5.2281        5.2283       3.512063       0.05852
  15     656.4        1.7363        0.0002        5.0791        5.0793       3.342975       0.06002
  14     680.1        1.7602        0.0002        4.9299        4.9301       3.169927       0.06143
  13     703.9        1.7886        0.0002        4.7798        4.7800       2.991356       0.06339
  12     727.7        1.8236        0.0002        4.6253        4.6255       2.801884       0.06725
  11     751.5        1.8677        0.0002        4.4633        4.4635       2.595747       0.07317
  10     775.2        1.9237        0.0002        4.2949        4.2951       2.371366       0.07965
   9     799.0        1.9960        0.0002        4.1205        4.1207       2.124714       0.08755
   8     822.8        1.4369        1.1763        2.1440        3.3204       1.883488       0.08563
   7     846.6        0.9490        1.5275        1.1158        2.6433       1.694303       0.06715
   6     870.4        0.5057        1.4793        0.5811        2.0604       1.554626       0.04958
   5     894.1        0.0854        1.2428        0.3028        1.5456       1.460231       0.03351
   4     917.9        0.0877        1.1867        0.2903        1.4770       1.389241       0.02520
   3     941.7        0.0904        1.1335        0.2783        1.4118       1.321438       0.02407
   2     965.5        0.0935        1.0832        0.2669        1.3501       1.256539       0.02304
   1     989.2        0.0971        1.0353        0.2560        1.2913       1.194208       0.02212
   0    1013.0        0.1014        0.9897        0.2456        1.2353       1.133931       0.02140



 Wavenumbers:  3250. -  4000. cm-1, ATM      1
 LEVEL PRESSURE   UPWARD FLUX   DIFDOWN FLUX  DIRDOWN FLUX  DOWNWARD FLUX   NET FLUX    HEATING RATE
          mb          W/m2          W/m2          W/m2        W/m2          W/m2       degree/day
  60   .000300        0.0192        0.0000       12.4485       12.4485      12.429213       0.00000
  59    0.1000        0.0192        0.0000       12.4290       12.4290      12.409711       1.65079
  58    0.1403        0.0192        0.0000       12.4252       12.4252      12.405997       0.77776
  57    0.1968        0.0192        0.0000       12.4208       12.4208      12.401524       0.66803
  56    0.2760        0.0192        0.0000       12.4156       12.4156      12.396362       0.55013
  55    0.3871        0.0192        0.0000       12.4096       12.4096      12.390329       0.45825
  54    0.5430        0.0192        0.0000       12.4022       12.4022      12.383001       0.39669
  53    0.7617        0.0192        0.0000       12.3928       12.3928      12.373540       0.36506
  52     1.069        0.0192        0.0000       12.3807       12.3807      12.361500       0.33119
  51     1.499        0.0192        0.0000       12.3664       12.3664      12.347142       0.28159
  50     2.102        0.0192        0.0000       12.3498       12.3498      12.330509       0.23256
  49     2.949        0.0192        0.0000       12.3302       12.3302      12.310974       0.19473
  48     4.137        0.0192        0.0000       12.3067       12.3068      12.287509       0.16675
  47     5.803        0.0192        0.0000       12.2766       12.2766      12.257391       0.15257
  46     8.139        0.0192        0.0000       12.2347       12.2348      12.215523       0.15121
  45     11.42        0.0192        0.0000       12.1733       12.1733      12.154109       0.15812
  44     16.01        0.0192        0.0000       12.0830       12.0830      12.063798       0.16577
  43     22.46        0.0192        0.0000       11.9527       11.9527      11.933508       0.17049
  42     31.51        0.0192        0.0000       11.7748       11.7748      11.755623       0.16594
  41     44.20        0.0192        0.0001       11.5551       11.5552      11.535986       0.14607
  40     62.00        0.0192        0.0001       11.3050       11.3051      11.285918       0.11856
  39     85.78        0.0191        0.0001       11.0142       11.0143      10.995131       0.10322
  38     109.5        0.0191        0.0001       10.7175       10.7176      10.698510       0.10529
  37     133.1        0.0191        0.0002       10.4459       10.4460      10.426963       0.09752
  36     156.8        0.0191        0.0002       10.1944       10.1946      10.175575       0.08914
  35     180.6        0.0190        0.0002        9.9218        9.9220       9.903016       0.09676
  34     202.8        0.0190        0.0002        9.5970        9.5973       9.578245       0.12331
  33     228.4        0.0190        0.0002        9.1820        9.1823       9.163304       0.13690
  32     252.2        0.0190        0.0003        8.7004        8.7006       8.681656       0.17097
  31     276.0        0.0190        0.0003        8.1693        8.1695       8.150568       0.18851
  30     299.8        0.0190        0.0003        7.5886        7.5889       7.569891       0.20612
  29     323.5        0.0190        0.0003        6.9823        6.9825       6.963518       0.21524
  28     347.3        0.0191        0.0003        6.3629        6.3631       6.344038       0.21989
  27     371.1        0.0192        0.0002        5.7699        5.7701       5.750966       0.21052
  26     394.9        0.0193        0.0002        5.2041        5.2043       5.184988       0.20090
  25     418.6        0.0195        0.0002        4.6962        4.6964       4.676878       0.18036
  24     442.4        0.0198        0.0002        4.2409        4.2411       4.221336       0.16170
  23     466.2        0.0201        0.0002        3.8328        3.8330       3.812818       0.14501
  22     489.9        0.0206        0.0002        3.4648        3.4650       3.444423       0.13077
  21     513.7        0.0212        0.0002        3.1218        3.1220       3.100750       0.12199
  20     537.5        0.0220        0.0002        2.8040        2.8042       2.782126       0.11310
  19     561.3        0.0231        0.0002        2.5083        2.5084       2.485317       0.10536
  18     585.0        0.0245        0.0001        2.2301        2.2302       2.205752       0.09923
  17     608.8        0.0262        0.0001        1.9731        1.9732       1.946992       0.09185
  16     632.6        0.0284        0.0001        1.7337        1.7338       1.705409       0.08575
  15     656.4        0.0314        0.0001        1.5041        1.5042       1.472815       0.08256
  14     680.1        0.0354        0.0001        1.2888        1.2888       1.253439       0.07787
  13     703.9        0.0409        0.0001        1.0908        1.0909       1.049970       0.07222
  12     727.7        0.0487        0.0001        0.9082        0.9083       0.859568       0.06758
  11     751.5        0.0604        0.0001        0.7390        0.7391       0.678696       0.06420
  10     775.2        0.0784        0.0000        0.5856        0.5857       0.507257       0.06085
   9     799.0        0.1076        0.0000        0.4484        0.4484       0.340850       0.05907
   8     822.8        0.0564        0.0781        0.1790        0.2571       0.200772       0.04972
   7     846.6        0.0275        0.0710        0.0696        0.1406       0.113025       0.03115
   6     870.4        0.0110        0.0468        0.0263        0.0731       0.062049       0.01809
   5     894.1        0.0000        0.0259        0.0096        0.0355       0.035464       0.00944
   4     917.9        0.0000        0.0151        0.0062        0.0213       0.021296       0.00503
   3     941.7        0.0000        0.0083        0.0038        0.0122       0.012137       0.00325
   2     965.5        0.0000        0.0043        0.0023        0.0066       0.006553       0.00198
   1     989.2        0.0001        0.0021        0.0013        0.0034       0.003307       0.00115
   0    1013.0        0.0002        0.0010        0.0007        0.0017       0.001462       0.00065



 Wavenumbers:  4000. -  4650. cm-1, ATM      1
 LEVEL PRESSURE   UPWARD FLUX   DIFDOWN FLUX  DIRDOWN FLUX  DOWNWARD FLUX   NET FLUX    HEATING RATE
          mb          W/m2          W/m2          W/m2        W/m2          W/m2       degree/day
  60   .000300        5.3837        0.0000       14.6183       14.6183       9.234543       0.00000
  59    0.1000        5.3837        0.0000       14.6182       14.6182       9.234534       0.00076
  58    0.1403        5.3837        0.0000       14.6182       14.6182       9.234530       0.00077
  57    0.1968        5.3837        0.0000       14.6182       14.6182       9.234525       0.00077
  56    0.2760        5.3837        0.0000       14.6182       14.6182       9.234518       0.00076
  55    0.3871        5.3837        0.0000       14.6182       14.6182       9.234507       0.00080
  54    0.5430        5.3837        0.0000       14.6182       14.6182       9.234492       0.00085
  53    0.7617        5.3837        0.0000       14.6182       14.6182       9.234467       0.00095
  52     1.069        5.3837        0.0000       14.6181       14.6181       9.234426       0.00114
  51     1.499        5.3837        0.0000       14.6180       14.6181       9.234348       0.00152
  50     2.102        5.3837        0.0000       14.6179       14.6179       9.234207       0.00197
  49     2.949        5.3837        0.0000       14.6176       14.6177       9.233954       0.00252
  48     4.137        5.3837        0.0000       14.6172       14.6172       9.233525       0.00305
  47     5.803        5.3837        0.0000       14.6165       14.6165       9.232832       0.00351
  46     8.139        5.3837        0.0000       14.6154       14.6154       9.231748       0.00391
  45     11.42        5.3837        0.0001       14.6137       14.6138       9.230076       0.00431
  44     16.01        5.3837        0.0001       14.6112       14.6112       9.227540       0.00465
  43     22.46        5.3837        0.0001       14.6074       14.6075       9.223754       0.00495
  42     31.51        5.3837        0.0001       14.6017       14.6018       9.218085       0.00529
  41     44.20        5.3838        0.0002       14.5927       14.5929       9.209118       0.00596
  40     62.00        5.3839        0.0003       14.5788       14.5791       9.195165       0.00662
  39     85.78        5.3842        0.0004       14.5592       14.5597       9.175415       0.00701
  38     109.5        5.3847        0.0005       14.5382       14.5387       9.153984       0.00761
  37     133.1        5.3853        0.0006       14.5177       14.5183       9.133085       0.00750
  36     156.8        5.3859        0.0007       14.4977       14.4984       9.112497       0.00730
  35     180.6        5.3867        0.0008       14.4759       14.4767       9.090005       0.00798
  34     202.8        5.3877        0.0010       14.4536       14.4546       9.066829       0.00880
  33     228.4        5.3891        0.0011       14.4280       14.4291       9.040026       0.00884
  32     252.2        5.3908        0.0012       14.3983       14.3995       9.008696       0.01112
  31     276.0        5.3930        0.0013       14.3635       14.3648       8.971846       0.01308
  30     299.8        5.3958        0.0014       14.3217       14.3231       8.927274       0.01582
  29     323.5        5.3993        0.0015       14.2720       14.2735       8.874190       0.01884
  28     347.3        5.4037        0.0016       14.2129       14.2145       8.810789       0.02250
  27     371.1        5.4086        0.0017       14.1438       14.1454       8.736841       0.02625
  26     394.9        5.4142        0.0018       14.0605       14.0623       8.648062       0.03151
  25     418.6        5.4205        0.0019       13.9639       13.9658       8.545362       0.03645
  24     442.4        5.4276        0.0020       13.8548       13.8568       8.429193       0.04124
  23     466.2        5.4356        0.0021       13.7365       13.7386       8.303028       0.04478
  22     489.9        5.4446        0.0022       13.6136       13.6158       8.171235       0.04678
  21     513.7        5.4550        0.0023       13.4859       13.4882       8.033214       0.04899
  20     537.5        5.4670        0.0023       13.3568       13.3591       7.892134       0.05008
  19     561.3        5.4809        0.0024       13.2261       13.2285       7.747671       0.05128
  18     585.0        5.4972        0.0025       13.0915       13.0940       7.596862       0.05353
  17     608.8        5.5158        0.0026       12.9542       12.9568       7.440974       0.05533
  16     632.6        5.5372        0.0027       12.8109       12.8136       7.276350       0.05843
  15     656.4        5.5628        0.0027       12.6541       12.6568       7.094035       0.06471
  14     680.1        5.5932        0.0028       12.4832       12.4860       6.892817       0.07142
  13     703.9        5.6297        0.0029       12.2977       12.3006       6.670837       0.07879
  12     727.7        5.6749        0.0029       12.0950       12.0979       6.423035       0.08796
  11     751.5        5.7324        0.0030       11.8732       11.8762       6.143755       0.09913
  10     775.2        5.8066        0.0030       11.6374       11.6404       5.833839       0.11001
   9     799.0        5.9044        0.0031       11.3910       11.3941       5.489675       0.12216
   8     822.8        4.3146        3.4098        6.0577        9.4674       5.152841       0.11956
   7     846.6        2.8699        4.5364        3.2245        7.7608       4.890964       0.09296
   6     870.4        1.5102        4.4904        1.7181        6.2085       4.698321       0.06838
   5     894.1        0.1954        3.8474        0.9163        4.7636       4.568198       0.04619
   4     917.9        0.1976        3.7684        0.8988        4.6672       4.469550       0.03502
   3     941.7        0.2002        3.6918        0.8818        4.5736       4.373405       0.03413
   2     965.5        0.2032        3.6170        0.8653        4.4823       4.279114       0.03347
   1     989.2        0.2066        3.5436        0.8491        4.3927       4.186089       0.03301
   0    1013.0        0.2106        3.4714        0.8331        4.3045       4.093835       0.03275



 Wavenumbers:  4650. -  5150. cm-1, ATM      1
 LEVEL PRESSURE   UPWARD FLUX   DIFDOWN FLUX  DIRDOWN FLUX  DOWNWARD FLUX   NET FLUX    HEATING RATE
          mb          W/m2          W/m2          W/m2        W/m2          W/m2       degree/day
  60   .000300        3.9568        0.0000       13.8369       13.8369       9.880049       0.00000
  59    0.1000        3.9568        0.0000       13.8347       13.8347       9.877931       0.17929
  58    0.1403        3.9568        0.0000       13.8339       13.8339       9.877092       0.17564
  57    0.1968        3.9568        0.0000       13.8327       13.8327       9.875927       0.17409
  56    0.2760        3.9568        0.0000       13.8312       13.8312       9.874338       0.16936
  55    0.3871        3.9568        0.0000       13.8290       13.8290       9.872158       0.16558
  54    0.5430        3.9568        0.0000       13.8260       13.8260       9.869222       0.15891
  53    0.7617        3.9568        0.0000       13.8221       13.8221       9.865318       0.15065
  52     1.069        3.9568        0.0000       13.8170       13.8170       9.860165       0.14175
  51     1.499        3.9568        0.0000       13.8105       13.8105       9.853681       0.12717
  50     2.102        3.9568        0.0000       13.8026       13.8026       9.845809       0.11006
  49     2.949        3.9568        0.0000       13.7933       13.7933       9.836510       0.09270
  48     4.137        3.9568        0.0000       13.7830       13.7831       9.826264       0.07281
  47     5.803        3.9568        0.0000       13.7724       13.7724       9.815613       0.05396
  46     8.139        3.9568        0.0001       13.7615       13.7616       9.804778       0.03913
  45     11.42        3.9568        0.0001       13.7497       13.7498       9.792993       0.03034
  44     16.01        3.9569        0.0001       13.7347       13.7348       9.777935       0.02764
  43     22.46        3.9569        0.0002       13.7122       13.7123       9.755392       0.02950
  42     31.51        3.9571        0.0002       13.6758       13.6760       9.718983       0.03396
  41     44.20        3.9573        0.0003       13.6167       13.6170       9.659697       0.03943
  40     62.00        3.9578        0.0004       13.5244       13.5248       9.566990       0.04395
  39     85.78        3.9588        0.0006       13.3944       13.3950       9.436267       0.04640
  38     109.5        3.9599        0.0007       13.2650       13.2658       9.305850       0.04629
  37     133.1        3.9613        0.0009       13.1487       13.1496       9.188301       0.04221
  36     156.8        3.9630        0.0010       13.0449       13.0459       9.082912       0.03737
  35     180.6        3.9651        0.0012       12.9437       12.9449       8.979794       0.03661
  34     202.8        3.9674        0.0013       12.8534       12.8548       8.887353       0.03510
  33     228.4        3.9702        0.0015       12.7658       12.7673       8.797058       0.02979
  32     252.2        3.9735        0.0016       12.6801       12.6818       8.708249       0.03152
  31     276.0        3.9774        0.0018       12.5950       12.5968       8.619372       0.03155
  30     299.8        3.9822        0.0019       12.5053       12.5072       8.524961       0.03351
  29     323.5        3.9881        0.0020       12.4093       12.4113       8.423201       0.03612
  28     347.3        3.9949        0.0022       12.3075       12.3097       8.314720       0.03851
  27     371.1        4.0028        0.0023       12.1993       12.2016       8.198819       0.04114
  26     394.9        4.0120        0.0024       12.0815       12.0840       8.072000       0.04502
  25     418.6        4.0225        0.0026       11.9549       11.9574       7.934916       0.04866
  24     442.4        4.0345        0.0027       11.8185       11.8212       7.786678       0.05262
  23     466.2        4.0482        0.0028       11.6730       11.6758       7.627595       0.05647
  22     489.9        4.0635        0.0029       11.5203       11.5232       7.459642       0.05962
  21     513.7        4.0810        0.0030       11.3577       11.3607       7.279650       0.06389
  20     537.5        4.1007        0.0031       11.1878       11.1909       7.090230       0.06724
  19     561.3        4.1230        0.0032       11.0105       11.0137       6.890697       0.07083
  18     585.0        4.1484        0.0033       10.8249       10.8282       6.679718       0.07489
  17     608.8        4.1769        0.0034       10.6366       10.6400       6.463114       0.07689
  16     632.6        4.2087        0.0034       10.4463       10.4498       6.241098       0.07881
  15     656.4        4.2455        0.0035       10.2497       10.2532       6.007718       0.08284
  14     680.1        4.2874        0.0036       10.0509       10.0545       5.767131       0.08540
  13     703.9        4.3353        0.0036        9.8514        9.8550       5.519781       0.08780
  12     727.7        4.3913        0.0037        9.6483        9.6520       5.260742       0.09195
  11     751.5        4.4583        0.0038        9.4402        9.4440       4.985703       0.09763
  10     775.2        4.5385        0.0038        9.2294        9.2332       4.694750       0.10328
   9     799.0        4.6358        0.0039        9.0169        9.0207       4.384938       0.10997
   8     822.8        3.3826        2.6859        4.7893        7.4753       4.092689       0.10374
   7     846.6        2.2478        3.5647        2.5458        6.1105       3.862711       0.08163
   6     870.4        1.1826        3.5196        1.3542        4.8738       3.691210       0.06088
   5     894.1        0.1542        3.0077        0.7206        3.7283       3.574118       0.04156
   4     917.9        0.1565        2.9358        0.7052        3.6410       3.484541       0.03180
   3     941.7        0.1591        2.8660        0.6902        3.5562       3.397149       0.03102
   2     965.5        0.1620        2.7985        0.6756        3.4741       3.312116       0.03018
   1     989.2        0.1653        2.7332        0.6613        3.3945       3.229245       0.02941
   0    1013.0        0.1690        2.6700        0.6474        3.3174       3.148357       0.02872



 Wavenumbers:  5150. -  6150. cm-1, ATM      1
 LEVEL PRESSURE   UPWARD FLUX   DIFDOWN FLUX  DIRDOWN FLUX  DOWNWARD FLUX   NET FLUX    HEATING RATE
          mb          W/m2          W/m2          W/m2        W/m2          W/m2       degree/day
  60   .000300        9.2280        0.0000       34.6891       34.6891      25.461111       0.00000
  59    0.1000        9.2280        0.0000       34.6886       34.6886      25.460614       0.04202
  58    0.1403        9.2280        0.0000       34.6884       34.6884      25.460414       0.04195
  57    0.1968        9.2280        0.0000       34.6881       34.6881      25.460132       0.04211
  56    0.2760        9.2280        0.0000       34.6877       34.6877      25.459741       0.04168
  55    0.3871        9.2280        0.0000       34.6871       34.6871      25.459191       0.04178
  54    0.5430        9.2280        0.0000       34.6864       34.6864      25.458424       0.04149
  53    0.7617        9.2280        0.0000       34.6853       34.6853      25.457354       0.04130
  52     1.069        9.2280        0.0000       34.6838       34.6838      25.455846       0.04149
  51     1.499        9.2279        0.0000       34.6817       34.6817      25.453753       0.04105
  50     2.102        9.2279        0.0001       34.6787       34.6788      25.450858       0.04047
  49     2.949        9.2279        0.0001       34.6746       34.6747      25.446769       0.04076
  48     4.137        9.2280        0.0001       34.6689       34.6690      25.441078       0.04044
  47     5.803        9.2280        0.0002       34.6610       34.6612      25.433229       0.03976
  46     8.139        9.2280        0.0003       34.6502       34.6505      25.422468       0.03886
  45     11.42        9.2281        0.0004       34.6356       34.6359      25.407851       0.03763
  44     16.01        9.2281        0.0005       34.6159       34.6164      25.388245       0.03599
  43     22.46        9.2283        0.0007       34.5899       34.5906      25.362327       0.03391
  42     31.51        9.2285        0.0010       34.5564       34.5573      25.328830       0.03125
  41     44.20        9.2289        0.0014       34.5139       34.5153      25.286386       0.02823
  40     62.00        9.2296        0.0019       34.4619       34.4638      25.234182       0.02475
  39     85.78        9.2306        0.0026       34.4020       34.4046      25.174013       0.02136
  38     109.5        9.2317        0.0034       34.3491       34.3525      25.120764       0.01890
  37     133.1        9.2328        0.0041       34.3031       34.3072      25.074371       0.01666
  36     156.8        9.2339        0.0048       34.2595       34.2643      25.030326       0.01562
  35     180.6        9.2351        0.0055       34.2031       34.2086      24.973420       0.02020
  34     202.8        9.2364        0.0062       34.1091       34.1153      24.878984       0.03586
  33     228.4        9.2377        0.0069       33.9252       33.9321      24.694430       0.06089
  32     252.2        9.2391        0.0075       33.6087       33.6162      24.377091       0.11264
  31     276.0        9.2407        0.0081       33.1225       33.1307      23.889999       0.17290
  30     299.8        9.2425        0.0087       32.4763       32.4850      23.242507       0.22983
  29     323.5        9.2448        0.0092       31.7610       31.7702      22.525444       0.25453
  28     347.3        9.2475        0.0097       31.0137       31.0234      21.775988       0.26603
  27     371.1        9.2506        0.0101       30.2247       30.2348      20.984178       0.28106
  26     394.9        9.2546        0.0105       29.3520       29.3625      20.107947       0.31103
  25     418.6        9.2593        0.0109       28.4400       28.4509      19.191618       0.32526
  24     442.4        9.2650        0.0112       27.5194       27.5306      18.265634       0.32869
  23     466.2        9.2718        0.0115       26.6227       26.6342      17.362473       0.32059
  22     489.9        9.2799        0.0118       25.7669       25.7786      16.498727       0.30659
  21     513.7        9.2899        0.0120       24.9371       24.9491      15.659183       0.29800
  20     537.5        9.3022        0.0123       24.1537       24.1660      14.863894       0.28229
  19     561.3        9.3170        0.0125       23.4247       23.4373      14.120244       0.26396
  18     585.0        9.3353        0.0128       22.7500       22.7628      13.427535       0.24588
  17     608.8        9.3570        0.0131       22.1480       22.1611      12.804075       0.22130
  16     632.6        9.3830        0.0133       21.6116       21.6250      12.241961       0.19953
  15     656.4        9.4151        0.0136       21.1193       21.1330      11.717880       0.18603
  14     680.1        9.4546        0.0139       20.6722       20.6861      11.231481       0.17265
  13     703.9        9.5034        0.0142       20.2664       20.2806      10.777127       0.16128
  12     727.7        9.5652        0.0145       19.8884       19.9029      10.337642       0.15600
  11     751.5        9.6453        0.0147       19.5264       19.5412       9.895855       0.15682
  10     775.2        9.7497        0.0150       19.1765       19.1915       9.441831       0.16116
   9     799.0        9.8876        0.0152       18.8290       18.8443       8.956630       0.17223
   8     822.8        7.2550        5.6905       10.0486       15.7391       8.484088       0.16773
   7     846.6        4.8514        7.5971        5.3650       12.9621       8.110701       0.13254
   6     870.4        2.5806        7.5458        2.8660       10.4118       7.831168       0.09922
   5     894.1        0.3813        6.4908        1.5314        8.0222       7.640879       0.06754
   4     917.9        0.3835        6.3765        1.5052        7.8818       7.498277       0.05062
   3     941.7        0.3862        6.2689        1.4801        7.7490       7.362877       0.04806
   2     965.5        0.3894        6.1690        1.4563        7.6253       7.235944       0.04506
   1     989.2        0.3933        6.0767        1.4340        7.5107       7.117426       0.04206
   0    1013.0        0.3982        5.9915        1.4131        7.4047       7.006496       0.03938



 Wavenumbers:  6150. -  7700. cm-1, ATM      1
 LEVEL PRESSURE   UPWARD FLUX   DIFDOWN FLUX  DIRDOWN FLUX  DOWNWARD FLUX   NET FLUX    HEATING RATE
          mb          W/m2          W/m2          W/m2        W/m2          W/m2       degree/day
  60   .000300       14.5075        0.0000       64.1588       64.1588      49.651300       0.00000
  59    0.1000       14.5075        0.0000       64.1581       64.1581      49.650640       0.05584
  58    0.1403       14.5075        0.0000       64.1578       64.1578      49.650373       0.05593
  57    0.1968       14.5075        0.0000       64.1574       64.1575      49.649997       0.05625
  56    0.2760       14.5074        0.0000       64.1569       64.1569      49.649473       0.05580
  55    0.3871       14.5074        0.0000       64.1561       64.1562      49.648735       0.05604
  54    0.5430       14.5074        0.0001       64.1551       64.1551      49.647705       0.05578
  53    0.7617       14.5074        0.0001       64.1536       64.1537      49.646263       0.05562
  52     1.069       14.5074        0.0001       64.1515       64.1516      49.644231       0.05590
  51     1.499       14.5073        0.0002       64.1486       64.1488      49.641414       0.05524
  50     2.102       14.5073        0.0003       64.1446       64.1448      49.637526       0.05437
  49     2.949       14.5072        0.0004       64.1389       64.1393      49.632040       0.05468
  48     4.137       14.5071        0.0005       64.1310       64.1315      49.624408       0.05423
  47     5.803       14.5070        0.0007       64.1201       64.1208      49.613859       0.05344
  46     8.139       14.5068        0.0010       64.1051       64.1061      49.599324       0.05249
  45     11.42       14.5065        0.0015       64.0845       64.0859      49.579406       0.05128
  44     16.01       14.5062        0.0020       64.0565       64.0585      49.552355       0.04965
  43     22.46       14.5056        0.0029       64.0187       64.0216      49.515924       0.04767
  42     31.51       14.5049        0.0040       63.9683       63.9723      49.467411       0.04526
  41     44.20       14.5039        0.0056       63.9021       63.9077      49.403860       0.04226
  40     62.00       14.5024        0.0078       63.8170       63.8248      49.322415       0.03861
  39     85.78       14.5005        0.0108       63.7137       63.7245      49.223993       0.03494
  38     109.5       14.4986        0.0138       63.6174       63.6313      49.132650       0.03242
  37     133.1       14.4968        0.0167       63.5307       63.5474      49.050639       0.02945
  36     156.8       14.4950        0.0196       63.4470       63.4666      48.971540       0.02805
  35     180.6       14.4932        0.0226       63.3411       63.3637      48.870507       0.03587
  34     202.8       14.4915        0.0254       63.1774       63.2029      48.711344       0.06043
  33     228.4       14.4899        0.0283       62.8910       62.9193      48.429375       0.09303
  32     252.2       14.4886        0.0310       62.4548       62.4858      47.997248       0.15339
  31     276.0       14.4877        0.0336       61.8034       61.8370      47.349346       0.22998
  30     299.8       14.4874        0.0360       60.8493       60.8853      46.397903       0.33772
  29     323.5       14.4880        0.0382       59.6406       59.6788      45.190845       0.42846
  28     347.3       14.4898        0.0402       58.2994       58.3396      43.849790       0.47602
  27     371.1       14.4930        0.0420       56.9373       56.9794      42.486345       0.48397
  26     394.9       14.4982        0.0437       55.4853       55.5291      41.030926       0.51661
  25     418.6       14.5056        0.0453       53.9434       53.9886      39.483042       0.54944
  24     442.4       14.5158        0.0466       52.3152       52.3618      37.845951       0.58110
  23     466.2       14.5293        0.0478       50.6699       50.7177      36.188386       0.58837
  22     489.9       14.5465        0.0489       49.0609       49.1098      34.563304       0.57684
  21     513.7       14.5689        0.0499       47.4627       47.5126      32.943778       0.57486
  20     537.5       14.5971        0.0508       45.9016       45.9525      31.355357       0.56382
  19     561.3       14.6325        0.0516       44.3828       44.4344      29.801888       0.55142
  18     585.0       14.6769        0.0524       42.9069       42.9593      28.282376       0.53936
  17     608.8       14.7305        0.0531       41.5192       41.5724      26.841840       0.51133
  16     632.6       14.7952        0.0538       40.2123       40.2661      25.470914       0.48662
  15     656.4       14.8758        0.0545       38.9372       38.9916      24.115823       0.48100
  14     680.1       14.9760        0.0550       37.7038       37.7589      22.782905       0.47313
  13     703.9       15.1006        0.0555       36.5148       36.5703      21.469706       0.46613
  12     727.7       15.2598        0.0559       35.3478       35.4037      20.143969       0.47058
  11     751.5       15.4696        0.0563       34.1879       34.2442      18.774639       0.48606
  10     775.2       15.7478        0.0566       33.0529       33.1095      17.361761       0.50151
   9     799.0       16.1271        0.0568       31.9455       32.0023      15.875173       0.52768
   8     822.8       11.7083        9.3991       16.7959       26.1950      14.486721       0.49284
   7     846.6        7.7634       12.3681        8.8497       21.2179      13.454508       0.36639
   6     870.4        4.0937       12.1395        4.6728       16.8123      12.718613       0.26121
   5     894.1        0.5679       10.3312        2.4711       12.8023      12.234360       0.17189
   4     917.9        0.5741       10.0474        2.4057       12.4531      11.879043       0.12612
   3     941.7        0.5814        9.7816        2.3438       12.1254      11.544078       0.11890
   2     965.5        0.5901        9.5331        2.2855       11.8186      11.228520       0.11201
   1     989.2        0.6006        9.3005        2.2305       11.5310      10.930377       0.10581
   0    1013.0        0.6134        9.0816        2.1785       11.2601      10.646613       0.10075



 Wavenumbers:  7700. -  8050. cm-1, ATM      1
 LEVEL PRESSURE   UPWARD FLUX   DIFDOWN FLUX  DIRDOWN FLUX  DOWNWARD FLUX   NET FLUX    HEATING RATE
          mb          W/m2          W/m2          W/m2        W/m2          W/m2       degree/day
  60   .000300        7.1183        0.0000       15.1626       15.1626       8.044290       0.00000
  59    0.1000        7.1184        0.0000       15.1625       15.1625       8.044083       0.01754
  58    0.1403        7.1184        0.0000       15.1624       15.1624       8.043999       0.01764
  57    0.1968        7.1184        0.0000       15.1623       15.1623       8.043880       0.01774
  56    0.2760        7.1185        0.0000       15.1622       15.1622       8.043715       0.01759
  55    0.3871        7.1185        0.0000       15.1620       15.1620       8.043482       0.01767
  54    0.5430        7.1186        0.0000       15.1617       15.1617       8.043157       0.01760
  53    0.7617        7.1187        0.0000       15.1613       15.1614       8.042702       0.01757
  52     1.069        7.1188        0.0001       15.1608       15.1609       8.042059       0.01769
  51     1.499        7.1190        0.0001       15.1601       15.1602       8.041165       0.01753
  50     2.102        7.1193        0.0001       15.1591       15.1592       8.039926       0.01733
  49     2.949        7.1197        0.0002       15.1576       15.1578       8.038167       0.01753
  48     4.137        7.1202        0.0002       15.1556       15.1559       8.035700       0.01753
  47     5.803        7.1209        0.0003       15.1528       15.1532       8.032250       0.01748
  46     8.139        7.1220        0.0005       15.1489       15.1494       8.027424       0.01743
  45     11.42        7.1234        0.0007       15.1434       15.1441       8.020669       0.01739
  44     16.01        7.1255        0.0009       15.1358       15.1367       8.011226       0.01733
  43     22.46        7.1284        0.0013       15.1251       15.1264       7.998012       0.01729
  42     31.51        7.1324        0.0018       15.1101       15.1119       7.979530       0.01724
  41     44.20        7.1382        0.0026       15.0892       15.0918       7.953654       0.01721
  40     62.00        7.1462        0.0036       15.0604       15.0640       7.917752       0.01702
  39     85.78        7.1571        0.0050       15.0223       15.0273       7.870154       0.01690
  38     109.5        7.1683        0.0063       14.9841       14.9905       7.822145       0.01704
  37     133.1        7.1793        0.0077       14.9478       14.9555       7.776234       0.01649
  36     156.8        7.1901        0.0090       14.9129       14.9219       7.731840       0.01574
  35     180.6        7.2017        0.0103       14.8763       14.8866       7.684968       0.01664
  34     202.8        7.2130        0.0116       14.8414       14.8531       7.640085       0.01704
  33     228.4        7.2247        0.0130       14.8062       14.8192       7.594506       0.01504
  32     252.2        7.2366        0.0143       14.7713       14.7856       7.548972       0.01616
  31     276.0        7.2485        0.0156       14.7370       14.7526       7.504069       0.01594
  30     299.8        7.2608        0.0169       14.7027       14.7197       7.458852       0.01605
  29     323.5        7.2733        0.0183       14.6685       14.6868       7.413450       0.01612
  28     347.3        7.2860        0.0196       14.6347       14.6543       7.368256       0.01604
  27     371.1        7.2989        0.0208       14.6014       14.6222       7.323366       0.01593
  26     394.9        7.3122        0.0222       14.5675       14.5897       7.277450       0.01630
  25     418.6        7.3260        0.0234       14.5336       14.5571       7.231100       0.01645
  24     442.4        7.3401        0.0247       14.4995       14.5243       7.184147       0.01667
  23     466.2        7.3548        0.0260       14.4651       14.4912       7.136391       0.01695
  22     489.9        7.3697        0.0273       14.4307       14.4580       7.088319       0.01706
  21     513.7        7.3854        0.0286       14.3957       14.4243       7.038908       0.01754
  20     537.5        7.4015        0.0298       14.3603       14.3902       6.988709       0.01782
  19     561.3        7.4182        0.0311       14.3246       14.3557       6.937501       0.01818
  18     585.0        7.4359        0.0324       14.2875       14.3199       6.884001       0.01899
  17     608.8        7.4543        0.0336       14.2500       14.2836       6.829368       0.01939
  16     632.6        7.4734        0.0348       14.2119       14.2468       6.773411       0.01986
  15     656.4        7.4937        0.0361       14.1722       14.2083       6.714545       0.02089
  14     680.1        7.5152        0.0373       14.1314       14.1686       6.653384       0.02171
  13     703.9        7.5381        0.0385       14.0891       14.1276       6.589513       0.02267
  12     727.7        7.5627        0.0397       14.0446       14.0843       6.521534       0.02413
  11     751.5        7.5897        0.0409       13.9973       14.0381       6.448425       0.02595
  10     775.2        7.6191        0.0420       13.9473       13.9894       6.370249       0.02775
   9     799.0        7.6513        0.0432       13.8944       13.9376       6.286287       0.02980
   8     822.8        5.6845        4.3609        7.5260       11.8869       6.202419       0.02977
   7     846.6        3.8424        5.8966        4.0765        9.9731       6.130710       0.02545
   6     870.4        2.0704        5.9366        2.2070        8.1437       6.073317       0.02037
   5     894.1        0.3363        5.1729        1.1949        6.3678       6.031475       0.01485
   4     917.9        0.3376        5.1452        1.1895        6.3347       5.997092       0.01220
   3     941.7        0.3389        5.1166        1.1838        6.3005       5.961521       0.01263
   2     965.5        0.3404        5.0873        1.1781        6.2654       5.924952       0.01298
   1     989.2        0.3420        5.0572        1.1721        6.2294       5.887372       0.01334
   0    1013.0        0.3437        5.0264        1.1660        6.1925       5.848772       0.01370



 Wavenumbers:  8050. - 12850. cm-1, ATM      1
 LEVEL PRESSURE   UPWARD FLUX   DIFDOWN FLUX  DIRDOWN FLUX  DOWNWARD FLUX   NET FLUX    HEATING RATE
          mb          W/m2          W/m2          W/m2        W/m2          W/m2       degree/day
  60   .000300       89.2044        0.0000      212.2880      212.2880     123.083594       0.00000
  59    0.1000       89.2043        0.0003      212.2876      212.2879     123.083594       0.00000
  58    0.1403       89.2042        0.0004      212.2874      212.2878     123.083594       0.00000
  57    0.1968       89.2042        0.0006      212.2872      212.2877     123.083594      -0.00000
  56    0.2760       89.2041        0.0008      212.2869      212.2877     123.083594      -0.00000
  55    0.3871       89.2039        0.0011      212.2864      212.2875     123.083594       0.00000
  54    0.5430       89.2038        0.0015      212.2858      212.2873     123.083594      -0.00000
  53    0.7617       89.2035        0.0021      212.2850      212.2871     123.083594       0.00000
  52     1.069       89.2031        0.0030      212.2837      212.2867     123.083594      -0.00000
  51     1.499       89.2026        0.0042      212.2820      212.2862     123.083594      -0.00000
  50     2.102       89.2019        0.0059      212.2797      212.2855     123.083594       0.00000
  49     2.949       89.2010        0.0082      212.2763      212.2846     123.083594       0.00000
  48     4.137       89.1996        0.0115      212.2717      212.2832     123.083594       0.00000
  47     5.803       89.1977        0.0162      212.2651      212.2813     123.083594      -0.00000
  46     8.139       89.1950        0.0227      212.2559      212.2786     123.083594      -0.00000
  45     11.42       89.1912        0.0317      212.2430      212.2748     123.083594      -0.00000
  44     16.01       89.1859        0.0445      212.2250      212.2695     123.083594       0.00000
  43     22.46       89.1785        0.0623      212.1998      212.2621     123.083594      -0.00000
  42     31.51       89.1681        0.0873      212.1643      212.2517     123.083594       0.00000
  41     44.20       89.1534        0.1225      212.1145      212.2370     123.083594      -0.00000
  40     62.00       89.1330        0.1716      212.0450      212.2166     123.083594      -0.00000
  39     85.78       89.1057        0.2371      211.9522      212.1893     123.083594       0.00000
  38     109.5       89.0784        0.3037      211.8451      212.1489     123.070453       0.00466
  37     133.1       89.0521        0.3678      211.7421      212.1100     123.057874       0.00452
  36     156.8       89.0264        0.4302      211.6412      212.0714     123.044985       0.00457
  35     180.6       88.9991        0.4966      211.5292      212.0257     123.026628       0.00652
  34     202.8       88.9730        0.5604      211.4041      211.9645     122.991576       0.01331
  33     228.4       88.9466        0.6255      211.2349      211.8604     122.913865       0.02564
  32     252.2       88.9209        0.6906      211.0003      211.6910     122.770129       0.05102
  31     276.0       88.8968        0.7548      210.6760      211.4308     122.534027       0.08381
  30     299.8       88.8749        0.8192      210.2328      211.0520     122.177116       0.12669
  29     323.5       88.8563        0.8834      209.6743      210.5577     121.701383       0.16887
  28     347.3       88.8427        0.9467      209.0175      209.9642     121.121433       0.20586
  27     371.1       88.8349        1.0087      208.2872      209.2959     120.460960       0.23444
  26     394.9       88.8344        1.0710      207.4416      208.5126     119.678254       0.27783
  25     418.6       88.8428        1.1325      206.4758      207.6083     118.765487       0.32399
  24     442.4       88.8627        1.1932      205.3737      206.5668     117.704165       0.37673
  23     466.2       88.8953        1.2532      204.1488      205.4020     116.506670       0.42506
  22     489.9       88.9426        1.3117      202.8236      204.1353     115.192698       0.46641
  21     513.7       89.0089        1.3695      201.3667      202.7363     113.727372       0.52013
  20     537.5       89.0974        1.4258      199.7935      201.2193     112.121872       0.56989
  19     561.3       89.2126        1.4805      198.0998      199.5802     110.367674       0.62267
  18     585.0       89.3598        1.5348      196.2781      197.8129     108.453124       0.67959
  17     608.8       89.5398        1.5875      194.3934      195.9810     106.441170       0.71416
  16     632.6       89.7580        1.6387      192.4530      194.0916     104.333604       0.74810
  15     656.4       90.0309        1.6892      190.4000      192.0892     102.058289       0.80764
  14     680.1       90.3696        1.7377      188.2528      189.9905      99.620853       0.86519
  13     703.9       90.7893        1.7843      186.0204      187.8047      97.015393       0.92483
  12     727.7       91.3198        1.8294      183.6647      185.4941      94.174381       1.00844
  11     751.5       92.0061        1.8727      181.1466      183.0194      91.013218       1.12208
  10     775.2       92.8905        1.9134      178.4925      180.4059      87.515385       1.24159
   9     799.0       94.0431        1.9515      175.7106      177.6621      83.618971       1.38307
   8     822.8       69.2347       54.9961       93.9920      148.9881      79.753357       1.37213
   7     846.6       46.4614       72.8329       50.2985      123.1314      76.669985       1.09447
   6     870.4       24.8825       72.3078       26.9251       99.2328      74.350295       0.82339
   5     894.1        3.9309       62.2675       14.4194       76.6868      72.755956       0.56592
   4     917.9        3.9470       61.2813       14.2009       75.4822      71.535247       0.43330
   3     941.7        3.9679       60.3235       13.9871       74.3106      70.342701       0.42330
   2     965.5        3.9944       59.3977       13.7791       73.1767      69.182342       0.41188
   1     989.2        4.0277       58.5007       13.5769       72.0776      68.049905       0.40188
   0    1013.0        4.0693       57.6312       13.3798       71.0110      66.941687       0.39345



 Wavenumbers: 12850. - 16000. cm-1, ATM      1
 LEVEL PRESSURE   UPWARD FLUX   DIFDOWN FLUX  DIRDOWN FLUX  DOWNWARD FLUX   NET FLUX    HEATING RATE
          mb          W/m2          W/m2          W/m2        W/m2          W/m2       degree/day
  60   .000300       65.7624        0.0000      133.0172      133.0172      67.254810       0.00000
  59    0.1000       65.7623        0.0006      133.0095      133.0101      67.247870       0.58741
  58    0.1403       65.7623        0.0009      133.0064      133.0073      67.245015       0.59784
  57    0.1968       65.7623        0.0012      133.0021      133.0033      67.240977       0.60324
  56    0.2760       65.7625        0.0017      132.9962      132.9979      67.235357       0.59880
  55    0.3871       65.7628        0.0024      132.9880      132.9903      67.227529       0.59459
  54    0.5430       65.7634        0.0033      132.9769      132.9802      67.216796       0.58105
  53    0.7617       65.7646        0.0046      132.9618      132.9665      67.201882       0.57549
  52     1.069       65.7669        0.0065      132.9413      132.9478      67.180873       0.57788
  51     1.499       65.7713        0.0091      132.9135      132.9226      67.151244       0.58110
  50     2.102       65.7799        0.0127      132.8748      132.8876      67.107677       0.60912
  49     2.949       65.7964        0.0178      132.8176      132.8354      67.039001       0.68459
  48     4.137       65.8255        0.0250      132.7325      132.7575      66.932033       0.76012
  47     5.803       65.8704        0.0350      132.6115      132.6465      66.776101       0.78992
  46     8.139       65.9318        0.0491      132.4493      132.4984      66.566637       0.75649
  45     11.42       66.0083        0.0687      132.2424      132.3111      66.302754       0.67940
  44     16.01       66.1008        0.0960      131.9828      132.0788      65.977997       0.59610
  43     22.46       66.2102        0.1344      131.6592      131.7936      65.583390       0.51636
  42     31.51       66.3285        0.1880      131.2747      131.4627      65.134194       0.41904
  41     44.20       66.4379        0.2631      130.8450      131.1082      64.670248       0.30854
  40     62.00       66.5307        0.3678      130.3669      130.7347      64.204056       0.22103
  39     85.78       66.5791        0.5075      129.8828      130.3903      63.811249       0.13943
  38     109.5       66.5997        0.6504      129.4797      130.1300      63.530289       0.09973
  37     133.1       66.6064        0.7876      129.1217      129.9093      63.302865       0.08167
  36     156.8       66.6058        0.9208      128.7892      129.7101      63.104247       0.07043
  35     180.6       66.5956        1.0622      128.4511      129.5133      62.917672       0.06624
  34     202.8       66.5769        1.1981      128.1377      129.3358      62.758965       0.06026
  33     228.4       66.5535        1.3365      127.8216      129.1580      62.604580       0.05094
  32     252.2       66.5278        1.4749      127.5049      128.9799      62.452084       0.05413
  31     276.0       66.5004        1.6115      127.1922      128.8037      62.303329       0.05280
  30     299.8       66.4718        1.7489      126.8751      128.6241      62.152305       0.05361
  29     323.5       66.4437        1.8864      126.5537      128.4401      61.996384       0.05535
  28     347.3       66.4172        2.0223      126.2298      128.2521      61.834884       0.05733
  27     371.1       66.3926        2.1562      125.9047      128.0610      61.668323       0.05912
  26     394.9       66.3701        2.2917      125.5688      127.8605      61.490396       0.06316
  25     418.6       66.3509        2.4265      125.2257      127.6523      61.301403       0.06708
  24     442.4       66.3356        2.5608      124.8736      127.4344      61.098797       0.07192
  23     466.2       66.3248        2.6951      124.5111      127.2062      60.881367       0.07718
  22     489.9       66.3193        2.8274      124.1420      126.9694      60.650107       0.08209
  21     513.7       66.3203        2.9599      123.7577      126.7176      60.397285       0.08974
  20     537.5       66.3291        3.0907      123.3614      126.4521      60.122955       0.09738
  19     561.3       66.3471        3.2197      122.9509      126.1706      59.823486       0.10630
  18     585.0       66.3754        3.3499      122.5175      125.8675      59.492045       0.11765
  17     608.8       66.4126        3.4781      122.0752      125.5533      59.140647       0.12473
  16     632.6       66.4599        3.6041      121.6228      125.2269      58.767040       0.13262
  15     656.4       66.5208        3.7305      121.1473      124.8779      58.357106       0.14551
  14     680.1       66.5979        3.8546      120.6531      124.5077      57.909831       0.15876
  13     703.9       66.6943        3.9762      120.1376      124.1138      57.419482       0.17405
  12     727.7       66.8162        4.0970      119.5892      123.6862      56.870006       0.19504
  11     751.5       66.9695        4.2168      119.0038      123.2206      56.251087       0.21969
  10     775.2       67.1591        4.3338      118.3848      122.7185      55.559428       0.24551
   9     799.0       67.3930        4.4477      117.7284      122.1760      54.783071       0.27557
   8     822.8       50.2838       40.6223       63.6531      104.2754      53.991611       0.28094
   7     846.6       34.2515       53.1606       34.4140       87.5746      53.323135       0.23728
   6     870.4       18.8230       53.0141       18.6034       71.6174      52.794459       0.18766
   5     894.1        3.7270       46.0867       10.0549       56.1416      52.414673       0.13481
   4     917.9        3.7041       45.8190        9.9926       55.8116      52.107521       0.10903
   3     941.7        3.6826       45.5482        9.9295       55.4778      51.795119       0.11089
   2     965.5        3.6628       45.2761        9.8661       55.1423      51.479447       0.11205
   1     989.2        3.6448       45.0031        9.8026       54.8057      51.160891       0.11305
   0    1013.0        3.6287       44.7292        9.7389       54.4681      50.839396       0.11414



 Wavenumbers: 16000. - 22650. cm-1, ATM      1
 LEVEL PRESSURE   UPWARD FLUX   DIFDOWN FLUX  DIRDOWN FLUX  DOWNWARD FLUX   NET FLUX    HEATING RATE
          mb          W/m2          W/m2          W/m2        W/m2          W/m2       degree/day
  60   .000300      115.1390        0.0000      212.0812      212.0812      96.942193       0.00000
  59    0.1000      115.1383        0.0034      212.0760      212.0794      96.941046       0.09711
  58    0.1403      115.1383        0.0047      212.0737      212.0784      96.940126       0.19247
  57    0.1968      115.1383        0.0066      212.0701      212.0768      96.938464       0.24831
  56    0.2760      115.1386        0.0093      212.0648      212.0741      96.935541       0.31148
  55    0.3871      115.1393        0.0130      212.0569      212.0699      96.930612       0.37437
  54    0.5430      115.1408        0.0183      212.0449      212.0631      96.922349       0.44734
  53    0.7617      115.1441        0.0256      212.0263      212.0519      96.907766       0.56270
  52     1.069      115.1509        0.0360      211.9965      212.0325      96.881551       0.72111
  51     1.499      115.1645        0.0503      211.9488      211.9992      96.834619       0.92045
  50     2.102      115.1914        0.0703      211.8701      211.9404      96.748990       1.19720
  49     2.949      115.2443        0.0986      211.7353      211.8339      96.589596       1.58889
  48     4.137      115.3385        0.1382      211.5152      211.6535      96.315006       1.95125
  47     5.803      115.4845        0.1936      211.1861      211.3797      95.895165       2.12684
  46     8.139      115.6837        0.2710      210.7354      211.0063      95.322617       2.06780
  45     11.42      115.9315        0.3791      210.1559      210.5350      94.603418       1.85168
  44     16.01      116.2290        0.5300      209.4264      209.9564      93.727430       1.60789
  43     22.46      116.5779        0.7410      208.5155      209.2565      92.678618       1.37241
  42     31.51      116.9489        1.0358      207.4281      208.4640      91.515082       1.08542
  41     44.20      117.2790        1.4487      206.1997      207.6484      90.369407       0.76192
  40     62.00      117.5373        2.0222      204.7997      206.8220      89.284650       0.51430
  39     85.78      117.6291        2.7851      203.3150      206.1002      88.471028       0.28880
  38     109.5      117.5805        3.5564      202.0234      205.5798      87.999244       0.16746
  37     133.1      117.4967        4.2942      200.8408      205.1351      87.638399       0.12958
  36     156.8      117.3946        5.0078      199.7260      204.7338      87.339218       0.10609
  35     180.6      117.2590        5.7618      198.5859      204.3478      87.088753       0.08892
  34     202.8      117.1023        6.4840      197.5309      204.0149      86.912598       0.06688
  33     228.4      116.9290        7.2165      196.4789      203.6954      86.766345       0.04825
  32     252.2      116.7470        7.9467      195.4408      203.3875      86.640517       0.04466
  31     276.0      116.5589        8.6643      194.4310      203.0953      86.536406       0.03695
  30     299.8      116.3628        9.3835      193.4267      202.8102      86.447360       0.03161
  29     323.5      116.1635       10.1002      192.4286      202.5287      86.365246       0.02915
  28     347.3      115.9636       10.8064      191.4464      202.2528      86.289256       0.02697
  27     371.1      115.7641       11.4998      190.4836      201.9834      86.219286       0.02484
  26     394.9      115.5602       12.1990      189.5132      201.7122      86.152039       0.02387
  25     418.6      115.3557       12.8925      188.5503      201.4428      86.087042       0.02307
  24     442.4      115.1508       13.5815      187.5927      201.1742      86.023399       0.02259
  23     466.2      114.9446       14.2683      186.6371      200.9054      85.960800       0.02222
  22     489.9      114.7403       14.9436      185.6961      200.6398      85.899450       0.02178
  21     513.7      114.5349       15.6191      184.7529      200.3720      85.837155       0.02211
  20     537.5      114.3318       16.2845      183.8209      200.1054      85.773652       0.02254
  19     561.3      114.1310       16.9410      182.8981      199.8391      85.708124       0.02326
  18     585.0      113.9283       17.6029      181.9641      199.5671      85.638783       0.02461
  17     608.8      113.7287       18.2547      181.0409      199.2956      85.566886       0.02552
  16     632.6      113.5322       18.8965      180.1276      199.0241      85.491916       0.02661
  15     656.4      113.3354       19.5417      179.2047      198.7464      85.411001       0.02872
  14     680.1      113.1430       20.1774      178.2893      198.4667      85.323639       0.03101
  13     703.9      112.9556       20.8037      177.3803      198.1840      85.228356       0.03382
  12     727.7      112.7712       21.4301      176.4629      197.8930      85.121767       0.03783
  11     751.5      112.5912       22.0563      175.5353      197.5916      85.000414       0.04308
  10     775.2      112.4190       22.6748      174.6074      197.2822      84.863239       0.04869
   9     799.0      112.2557       23.2853      173.6783      196.9636      84.707836       0.05516
   8     822.8       85.2741       75.8898       93.9299      169.8197      84.545584       0.05759
   7     846.6       59.7210       93.3254       50.7993      144.1247      84.403656       0.05038
   6     870.4       34.9470       91.7610       27.4733      119.2343      84.287335       0.04129
   5     894.1       10.5962       79.9384       14.8580       94.7964      84.200224       0.03092
   4     917.9       10.4070       79.7575       14.7762       94.5338      84.126760       0.02608
   3     941.7       10.2178       79.5739       14.6943       94.2682      84.050416       0.02710
   2     965.5       10.0298       79.3888       14.6129       94.0017      83.971832       0.02789
   1     989.2        9.8433       79.2026       14.5319       93.7345      83.891265       0.02859
   0    1013.0        9.6580       79.0154       14.4515       93.4669      83.808870       0.02925



 Wavenumbers: 22650. - 29000. cm-1, ATM      1
 LEVEL PRESSURE   UPWARD FLUX   DIFDOWN FLUX  DIRDOWN FLUX  DOWNWARD FLUX   NET FLUX    HEATING RATE
          mb          W/m2          W/m2          W/m2        W/m2          W/m2       degree/day
  60   .000300       49.3076        0.0000       80.0317       80.0317      30.724136       0.00000
  59    0.1000       49.3065        0.0040       80.0267       80.0306      30.724136      -0.00000
  58    0.1403       49.3061        0.0055       80.0247       80.0302      30.724136       0.00000
  57    0.1968       49.3055        0.0078       80.0218       80.0296      30.724136       0.00000
  56    0.2760       49.3046        0.0109       80.0178       80.0287      30.724136       0.00000
  55    0.3871       49.3034        0.0154       80.0122       80.0275      30.724136      -0.00000
  54    0.5430       49.3017        0.0215       80.0043       80.0259      30.724136       0.00000
  53    0.7617       49.2994        0.0302       79.9933       80.0235      30.724136      -0.00000
  52     1.069       49.2961        0.0424       79.9778       80.0202      30.724136       0.00000
  51     1.499       49.2914        0.0593       79.9562       80.0156      30.724136      -0.00000
  50     2.102       49.2850        0.0828       79.9263       80.0092      30.724136       0.00000
  49     2.949       49.2760        0.1162       79.8839       80.0001      30.724136      -0.00000
  48     4.137       49.2632        0.1630       79.8244       79.9873      30.724136       0.00000
  47     5.803       49.2454        0.2283       79.7412       79.9695      30.724136      -0.00000
  46     8.139       49.2204        0.3196       79.6249       79.9446      30.724136       0.00000
  45     11.42       49.1855        0.4473       79.4623       79.9096      30.724136      -0.00000
  44     16.01       49.1366        0.6255       79.2352       79.8607      30.724136       0.00000
  43     22.46       49.0680        0.8742       78.9179       79.7922      30.724136      -0.00000
  42     31.51       48.9719        1.2210       78.4751       79.6961      30.724136       0.00000
  41     44.20       48.8371        1.7039       77.8573       79.5612      30.724136      -0.00000
  40     62.00       48.6492        2.3695       77.0038       79.3733      30.724136       0.00000
  39     85.78       48.3987        3.2436       75.8793       79.1228      30.724136       0.00000
  38     109.5       48.1447        4.1149       74.7539       78.8688      30.724136      -0.00000
  37     133.1       47.9006        4.9378       73.6869       78.6248      30.724136       0.00000
  36     156.8       47.6636        5.7240       72.6637       78.3877      30.724136       0.00000
  35     180.6       47.4120        6.5440       71.5922       78.1361      30.724136      -0.00000
  34     202.8       47.1702        7.3186       70.5757       77.8943      30.724136       0.00000
  33     228.4       46.9239        8.0939       69.5542       77.6481      30.724136      -0.00000
  32     252.2       46.6774        8.8566       68.5449       77.4015      30.724136      -0.00000
  31     276.0       46.4340        9.5963       67.5619       77.1581      30.724136       0.00000
  30     299.8       46.1890       10.3276       66.5855       76.9132      30.724136       0.00000
  29     323.5       45.9438       11.0467       65.6212       76.6680      30.724136       0.00000
  28     347.3       45.7010       11.7460       64.6791       76.4251      30.724136      -0.00000
  27     371.1       45.4615       12.4235       63.7621       76.1856      30.724136       0.00000
  26     394.9       45.2188       13.0975       62.8455       75.9430      30.724136       0.00000
  25     418.6       44.9770       13.7572       61.9439       75.7011      30.724136       0.00000
  24     442.4       44.7355       14.4038       61.0558       75.4596      30.724136       0.00000
  23     466.2       44.4935       15.0396       60.1781       75.2177      30.724136      -0.00000
  22     489.9       44.2545       15.6563       59.3223       74.9786      30.724136       0.00000
  21     513.7       44.0141       16.2648       58.4735       74.7382      30.724136      -0.00000
  20     537.5       43.7761       16.8561       57.6441       74.5002      30.724136       0.00000
  19     561.3       43.5400       17.4316       56.8325       74.2641      30.724136      -0.00000
  18     585.0       43.3006       18.0041       56.0207       74.0248      30.724136       0.00000
  17     608.8       43.0637       18.5600       55.2278       73.7878      30.724136       0.00000
  16     632.6       42.8290       19.1000       54.4531       73.5532      30.724136       0.00000
  15     656.4       42.5918       19.6355       53.6804       73.3159      30.724136      -0.00000
  14     680.1       42.3567       20.1559       52.9249       73.0808      30.724136       0.00000
  13     703.9       42.1236       20.6618       52.1859       72.8477      30.724136       0.00000
  12     727.7       41.8889       21.1611       51.4520       72.6131      30.724136       0.00000
  11     751.5       41.6527       21.6537       50.7232       72.3769      30.724136       0.00000
  10     775.2       41.4179       22.1338       50.0082       72.1420      30.724136       0.00000
   9     799.0       41.1842       22.6017       49.3067       71.9084      30.724136       0.00000
   8     822.8       31.4589       35.7470       26.4360       62.1829      30.724063       0.00003
   7     846.6       22.1393       38.6893       14.1740       52.8633      30.724003       0.00002
   6     870.4       13.0383       36.1616        7.6007       43.7623      30.723955       0.00002
   5     894.1        4.0550       30.7030        4.0759       34.7789      30.723920       0.00001
   4     917.9        3.8442       30.5495        4.0186       34.5681      30.723920       0.00000
   3     941.7        3.6327       30.3947        3.9619       34.3566      30.723920       0.00000
   2     965.5        3.4223       30.2398        3.9064       34.1462      30.723920       0.00000
   1     989.2        3.2129       30.0848        3.8520       33.9368      30.723920      -0.00000
   0    1013.0        3.0045       29.9297        3.7986       33.7284      30.723920       0.00000



 Wavenumbers: 29000. - 38000. cm-1, ATM      1
 LEVEL PRESSURE   UPWARD FLUX   DIFDOWN FLUX  DIRDOWN FLUX  DOWNWARD FLUX   NET FLUX    HEATING RATE
          mb          W/m2          W/m2          W/m2        W/m2          W/m2       degree/day
  60   .000300        8.3209        0.0000       28.2225       28.2225      19.901630       0.00000
  59    0.1000        8.3192        0.0029       28.1859       28.1888      19.869584       2.71255
  58    0.1403        8.3186        0.0040       28.1585       28.1626      19.844002       5.35718
  57    0.1968        8.3178        0.0057       28.1101       28.1158      19.798028       6.86683
  56    0.2760        8.3168        0.0079       28.0271       28.0350      19.718231       8.50283
  55    0.3871        8.3156        0.0110       27.8913       27.9024      19.586817       9.98215
  54    0.5430        8.3141        0.0153       27.6738       27.6891      19.374984      11.46693
  53    0.7617        8.3126        0.0210       27.3185       27.3395      19.026951      13.42982
  52     1.069        8.3115        0.0286       26.7574       26.7860      18.474505      15.19611
  51     1.499        8.3116        0.0383       25.9466       25.9849      17.673313      15.71318
  50     2.102        8.3150        0.0506       24.8886       24.9392      16.624161      14.66856
  49     2.949        8.3254        0.0667       23.6539       23.7206      15.395250      12.25013
  48     4.137        8.3471        0.0879       22.3800       22.4679      14.120744       9.05671
  47     5.803        8.3832        0.1161       21.1533       21.2693      12.886104       6.25446
  46     8.139        8.4339        0.1541       20.0304       20.1845      11.750617       4.10089
  45     11.42        8.4978        0.2056       19.0179       19.2236      10.725773       2.63860
  44     16.01        8.5761        0.2753       18.0801       18.3554       9.779312       1.73724
  43     22.46        8.6716        0.3700       17.1858       17.5558       8.884140       1.17137
  42     31.51        8.7774        0.4991       16.3448       16.8439       8.066443       0.76280
  41     44.20        8.8734        0.6768       15.5663       16.2431       7.369781       0.46331
  40     62.00        8.9483        0.9189       14.8065       15.7254       6.777101       0.28100
  39     85.78        8.9639        1.2354       14.0925       15.3279       6.364054       0.14661
  38     109.5        8.9303        1.5490       13.5167       15.0657       6.135345       0.08118
  37     133.1        8.8875        1.8385       13.0134       14.8519       5.964338       0.06141
  36     156.8        8.8411        2.1086       12.5564       14.6650       5.823901       0.04980
  35     180.6        8.7836        2.3856       12.1053       14.4910       5.707431       0.04135
  34     202.8        8.7193        2.6437       11.7016       14.3452       5.625931       0.03094
  33     228.4        8.6497        2.8971       11.3112       14.2083       5.558529       0.02224
  32     252.2        8.5778        3.1414       10.9372       14.0786       5.500790       0.02050
  31     276.0        8.5044        3.3739       10.5839       13.9578       5.453347       0.01684
  30     299.8        8.4286        3.5993       10.2424       13.8417       5.413192       0.01425
  29     323.5        8.3521        3.8162        9.9126       13.7288       5.376739       0.01294
  28     347.3        8.2759        4.0223        9.5973       13.6196       5.343680       0.01173
  27     371.1        8.2004        4.2177        9.2967       13.5144       5.314033       0.01052
  26     394.9        8.1235        4.4078        9.0022       13.4100       5.286507       0.00977
  25     418.6        8.0468        4.5896        8.7182       13.3077       5.260947       0.00907
  24     442.4        7.9701        4.7635        8.4437       13.2072       5.237139       0.00845
  23     466.2        7.8930        4.9306        8.1775       13.1081       5.215032       0.00785
  22     489.9        7.8168        5.0887        7.9229       13.0116       5.194738       0.00720
  21     513.7        7.7401        5.2409        7.6749       12.9157       5.175612       0.00679
  20     537.5        7.6642        5.3850        7.4369       12.8219       5.157661       0.00637
  19     561.3        7.5890        5.5218        7.2080       12.7297       5.140754       0.00600
  18     585.0        7.5128        5.6541        6.9831       12.6372       5.124397       0.00581
  17     608.8        7.4375        5.7792        6.7672       12.5463       5.108881       0.00551
  16     632.6        7.3629        5.8973        6.5598       12.4571       5.094139       0.00523
  15     656.4        7.2877        6.0110        6.3565       12.3675       5.079831       0.00508
  14     680.1        7.2132        6.1183        6.1611       12.2794       5.066198       0.00484
  13     703.9        7.1395        6.2195        5.9732       12.1927       5.053192       0.00462
  12     727.7        7.0654        6.3163        5.7897       12.1060       5.040588       0.00447
  11     751.5        6.9909        6.4087        5.6105       12.0192       5.028379       0.00433
  10     775.2        6.9168        6.4958        5.4377       11.9335       5.016693       0.00415
   9     799.0        6.8433        6.5777        5.2710       11.8488       5.005498       0.00397
   8     822.8        5.2732        7.4906        2.7779       10.2685       4.995339       0.00361
   7     846.6        3.7499        7.2730        1.4640        8.7370       4.987073       0.00293
   6     870.4        2.2520        6.4611        0.7716        7.2327       4.980697       0.00226
   5     894.1        0.7676        5.3370        0.4067        5.7438       4.976136       0.00162
   4     917.9        0.6960        5.2743        0.3942        5.6685       4.972512       0.00129
   3     941.7        0.6242        5.2112        0.3820        5.5932       4.969038       0.00123
   2     965.5        0.5527        5.1482        0.3703        5.5185       4.965735       0.00117
   1     989.2        0.4816        5.0852        0.3590        5.4442       4.962594       0.00111
   0    1013.0        0.4108        5.0224        0.3481        5.3704       4.959606       0.00106



 Wavenumbers: 38000. - 50000. cm-1, ATM      1
 LEVEL PRESSURE   UPWARD FLUX   DIFDOWN FLUX  DIRDOWN FLUX  DOWNWARD FLUX   NET FLUX    HEATING RATE
          mb          W/m2          W/m2          W/m2        W/m2          W/m2       degree/day
  60   .000300        0.0069        0.0000        1.7407        1.7407       1.733864       0.00000
  59    0.1000        0.0063        0.0006        1.7198        1.7204       1.714069       1.67562
  58    0.1403        0.0061        0.0008        1.7047        1.7056       1.699408       3.07012
  57    0.1968        0.0059        0.0012        1.6784        1.6796       1.673683       3.84232
  56    0.2760        0.0056        0.0016        1.6341        1.6357       1.630132       4.64062
  55    0.3871        0.0051        0.0021        1.5634        1.5655       1.560405       5.29648
  54    0.5430        0.0046        0.0028        1.4543        1.4571       1.452495       5.84133
  53    0.7617        0.0039        0.0034        1.2861        1.2895       1.285598       6.44019
  52     1.069        0.0031        0.0037        1.0457        1.0495       1.046342       6.58121
  51     1.499        0.0024        0.0037        0.7523        0.7559       0.753565       5.74202
  50     2.102        0.0017        0.0031        0.4664        0.4695       0.467843       3.99478
  49     2.949        0.0012        0.0024        0.2581        0.2604       0.259286       2.07895
  48     4.137        0.0008        0.0017        0.1381        0.1398       0.139011       0.85468
  47     5.803        0.0005        0.0013        0.0728        0.0741       0.073572       0.33150
  46     8.139        0.0003        0.0009        0.0388        0.0397       0.039349       0.12360
  45     11.42        0.0002        0.0006        0.0198        0.0204       0.020194       0.04932
  44     16.01        0.0001        0.0004        0.0090        0.0093       0.009236       0.02011
  43     22.46        0.0000        0.0002        0.0034        0.0036       0.003591       0.00739
  42     31.51        0.0000        0.0001        0.0011        0.0012       0.001179       0.00225
  41     44.20        0.0000        0.0000        0.0003        0.0003       0.000327       0.00057
  40     62.00        0.0000        0.0000        0.0001        0.0001       0.000070       0.00012
  39     85.78        0.0000        0.0000        0.0000        0.0000       0.000012       0.00002
  38     109.5        0.0000        0.0000        0.0000        0.0000       0.000002       0.00000
  37     133.1        0.0000        0.0000        0.0000        0.0000       0.000000       0.00000
  36     156.8        0.0000        0.0000        0.0000        0.0000       0.000000       0.00000
  35     180.6        0.0000        0.0000        0.0000        0.0000       0.000000       0.00000
  34     202.8        0.0000        0.0000        0.0000        0.0000       0.000000       0.00000
  33     228.4        0.0000        0.0000        0.0000        0.0000       0.000000       0.00000
  32     252.2        0.0000        0.0000        0.0000        0.0000       0.000000       0.00000
  31     276.0        0.0000        0.0000        0.0000        0.0000       0.000000       0.00000
  30     299.8        0.0000        0.0000        0.0000        0.0000       0.000000       0.00000
  29     323.5        0.0000        0.0000        0.0000        0.0000       0.000000       0.00000
  28     347.3        0.0000        0.0000        0.0000        0.0000       0.000000       0.00000
  27     371.1        0.0000        0.0000        0.0000        0.0000       0.000000       0.00000
  26     394.9        0.0000        0.0000        0.0000        0.0000       0.000000       0.00000
  25     418.6        0.0000        0.0000        0.0000        0.0000       0.000000       0.00000
  24     442.4        0.0000        0.0000        0.0000        0.0000       0.000000       0.00000
  23     466.2        0.0000        0.0000        0.0000        0.0000       0.000000       0.00000
  22     489.9        0.0000        0.0000        0.0000        0.0000       0.000000       0.00000
  21     513.7        0.0000        0.0000        0.0000        0.0000       0.000000       0.00000
  20     537.5        0.0000        0.0000        0.0000        0.0000       0.000000       0.00000
  19     561.3        0.0000        0.0000        0.0000        0.0000       0.000000       0.00000
  18     585.0        0.0000        0.0000        0.0000        0.0000       0.000000       0.00000
  17     608.8        0.0000        0.0000        0.0000        0.0000       0.000000       0.00000
  16     632.6        0.0000        0.0000        0.0000        0.0000       0.000000       0.00000
  15     656.4        0.0000        0.0000        0.0000        0.0000       0.000000       0.00000
  14     680.1        0.0000        0.0000        0.0000        0.0000       0.000000       0.00000
  13     703.9        0.0000        0.0000        0.0000        0.0000       0.000000       0.00000
  12     727.7        0.0000        0.0000        0.0000        0.0000       0.000000       0.00000
  11     751.5        0.0000        0.0000        0.0000        0.0000       0.000000       0.00000
  10     775.2        0.0000        0.0000        0.0000        0.0000       0.000000       0.00000
   9     799.0        0.0000        0.0000        0.0000        0.0000       0.000000       0.00000
   8     822.8        0.0000        0.0000        0.0000        0.0000       0.000000       0.00000
   7     846.6        0.0000        0.0000        0.0000        0.0000       0.000000       0.00000
   6     870.4        0.0000        0.0000        0.0000        0.0000       0.000000       0.00000
   5     894.1        0.0000        0.0000        0.0000        0.0000       0.000000       0.00000
   4     917.9        0.0000        0.0000        0.0000        0.0000       0.000000       0.00000
   3     941.7        0.0000        0.0000        0.0000        0.0000       0.000000       0.00000
   2     965.5        0.0000        0.0000        0.0000        0.0000       0.000000       0.00000
   1     989.2        0.0000        0.0000        0.0000        0.0000       0.000000       0.00000
   0    1013.0        0.0000        0.0000        0.0000        0.0000       0.000000       0.00000



 Wavenumbers:   820. -  2600. cm-1, ATM      1
 LEVEL PRESSURE   UPWARD FLUX   DIFDOWN FLUX  DIRDOWN FLUX  DOWNWARD FLUX   NET FLUX    HEATING RATE
          mb          W/m2          W/m2          W/m2        W/m2          W/m2       degree/day
  60   .000300        1.1862        0.0000        8.1430        8.1430       6.956732       0.00000
  59    0.1000        1.1862        0.0000        8.1331        8.1331       6.946845       0.83689
  58    0.1403        1.1862        0.0000        8.1309        8.1309       6.944706       0.44788
  57    0.1968        1.1862        0.0000        8.1281        8.1281       6.941866       0.42424
  56    0.2760        1.1862        0.0000        8.1245        8.1245       6.938299       0.38014
  55    0.3871        1.1862        0.0000        8.1201        8.1201       6.933837       0.33889
  54    0.5430        1.1862        0.0000        8.1143        8.1143       6.928081       0.31161
  53    0.7617        1.1862        0.0000        8.1063        8.1063       6.920094       0.30819
  52     1.069        1.1862        0.0000        8.0951        8.0951       6.908844       0.30944
  51     1.499        1.1862        0.0000        8.0799        8.0799       6.893653       0.29794
  50     2.102        1.1863        0.0000        8.0595        8.0595       6.873239       0.28541
  49     2.949        1.1863        0.0000        8.0314        8.0314       6.845097       0.28053
  48     4.137        1.1863        0.0000        7.9935        7.9935       6.807244       0.26898
  47     5.803        1.1863        0.0000        7.9444        7.9444       6.758115       0.24888
  46     8.139        1.1863        0.0000        7.8811        7.8811       6.694826       0.22857
  45     11.42        1.1863        0.0000        7.8004        7.8004       6.614084       0.20788
  44     16.01        1.1863        0.0000        7.7070        7.7070       6.520704       0.17140
  43     22.46        1.1864        0.0000        7.6181        7.6181       6.431695       0.11647
  42     31.51        1.1864        0.0000        7.5468        7.5468       6.360366       0.06654
  41     44.20        1.1865        0.0000        7.4816        7.4816       6.295093       0.04341
  40     62.00        1.1867        0.0000        7.3998        7.3998       6.213154       0.03885
  39     85.78        1.1869        0.0000        7.2958        7.2958       6.108946       0.03699
  38     109.5        1.1871        0.0000        7.1946        7.1946       6.007583       0.03598
  37     133.1        1.1873        0.0000        7.1003        7.1003       5.913026       0.03396
  36     156.8        1.1875        0.0000        7.0126        7.0126       5.825191       0.03115
  35     180.6        1.1877        0.0000        6.9166        6.9166       5.728911       0.03418
  34     202.8        1.1880        0.0000        6.8041        6.8042       5.616192       0.04280
  33     228.4        1.1883        0.0000        6.6630        6.6630       5.474682       0.04669
  32     252.2        1.1888        0.0000        6.4917        6.4917       5.302868       0.06099
  31     276.0        1.1894        0.0000        6.3090        6.3091       5.119668       0.06503
  30     299.8        1.1903        0.0000        6.1153        6.1153       4.925052       0.06908
  29     323.5        1.1914        0.0000        5.9197        5.9197       4.728293       0.06984
  28     347.3        1.1930        0.0000        5.7036        5.7036       4.510634       0.07726
  27     371.1        1.1948        0.0000        5.4648        5.4649       4.270027       0.08541
  26     394.9        1.1971        0.0000        5.2059        5.2060       4.008865       0.09270
  25     418.6        1.1998        0.0000        4.9521        4.9521       3.752297       0.09107
  24     442.4        1.2029        0.0000        4.7233        4.7234       3.520416       0.08231
  23     466.2        1.2064        0.0000        4.5370        4.5370       3.330605       0.06738
  22     489.9        1.2104        0.0000        4.3924        4.3925       3.182041       0.05273
  21     513.7        1.2153        0.0000        4.2764        4.2764       3.061175       0.04290
  20     537.5        1.2209        0.0000        4.1775        4.1776       2.956643       0.03710
  19     561.3        1.2276        0.0000        4.0839        4.0840       2.856389       0.03559
  18     585.0        1.2355        0.0000        3.9882        3.9883       2.752820       0.03676
  17     608.8        1.2445        0.0000        3.8907        3.8907       2.646212       0.03784
  16     632.6        1.2551        0.0000        3.7911        3.7912       2.536115       0.03908
  15     656.4        1.2677        0.0000        3.6867        3.6868       2.419060       0.04155
  14     680.1        1.2829        0.0000        3.5795        3.5795       2.296613       0.04346
  13     703.9        1.3012        0.0000        3.4709        3.4710       2.169759       0.04503
  12     727.7        1.3241        0.0000        3.3598        3.3599       2.035755       0.04757
  11     751.5        1.3540        0.0001        3.2443        3.2444       1.890373       0.05160
  10     775.2        1.3929        0.0000        3.1256        3.1256       1.732698       0.05597
   9     799.0        1.4447        0.0000        3.0033        3.0033       1.558673       0.06177
   8     822.8        1.0338        0.8547        1.5654        2.4201       1.386288       0.06119
   7     846.6        0.6757        1.1090        0.8158        1.9248       1.249109       0.04869
   6     870.4        0.3497        1.0694        0.4251        1.4945       1.144841       0.03701
   5     894.1        0.0408        0.8911        0.2213        1.1125       1.071709       0.02596
   4     917.9        0.0424        0.8451        0.2115        1.0566       1.014190       0.02042
   3     941.7        0.0443        0.7991        0.2015        1.0007       0.956361       0.02053
   2     965.5        0.0465        0.7534        0.1916        0.9450       0.898439       0.02056
   1     989.2        0.0492        0.7082        0.1816        0.8898       0.840617       0.02052
   0    1013.0        0.0523        0.6638        0.1716        0.8354       0.783076       0.02043

  Modules and versions used in this calculation:

       rrtmg_sw.1col.f90:  $Revision$                    rrtmg_sw_init.f90:  $Revision$        
     rrtmgsw_cldprop.f90:  $Revision$                  rrtmgsw_cldprmc.f90:  NOT USED          
     rrtmg_sw_reftra.f90:  $Revision$                  rrtmg_sw_spcvrt.f90:  NOT USED          
     rrtmg_sw_spcvmc.f90:  NOT USED                    rrtmgsw_setcoef.f90:  NOT USED          
     rrtmg_sw_taumol.f90:  $Revision$                  rrtmg_sw_vrtqdr.f90:  NOT USED          
                rrtatm.f:  NOT USED                             util_xxx.f:  NOT USED          
                 extra.f:  NOT USED                       rrtmg_sw_k_g.f90:  $Revision$        

