

 Wavenumbers:   820. - 50000. cm-1, ATM      1
 LEVEL PRESSURE   UPWARD FLUX   DIFDOWN FLUX  DIRDOWN FLUX  DOWNWARD FLUX   NET FLUX    HEATING RATE
          mb          W/m2          W/m2          W/m2        W/m2          W/m2       degree/day
  60   .000300      148.7078        0.0000      837.8224      837.8224     689.114633       0.00000
  59    0.1000      148.7017        0.0102      837.7137      837.7239     689.022158       7.82758
  58    0.1403      148.6994        0.0143      837.6563      837.6706     688.971177      10.67579
  57    0.1968      148.6964        0.0200      837.5614      837.5814     688.885038      12.86624
  56    0.2760      148.6924        0.0280      837.4070      837.4350     688.742664      15.17070
  55    0.3871      148.6871        0.0391      837.1641      837.2032     688.516129      17.20756
  54    0.5430      148.6802        0.0545      836.7876      836.8421     688.161870      19.17664
  53    0.7617      148.6718        0.0754      836.1942      836.2696     687.597778      21.76708
  52     1.069      148.6621        0.1041      835.2926      835.3967     686.734598      23.74349
  51     1.499      148.6524        0.1424      834.0471      834.1895     685.537147      23.48469
  50     2.102      148.6461        0.1939      832.4995      832.6934     684.047294      20.83016
  49     2.949      148.6500        0.2657      830.7483      831.0140     682.364025      16.77930
  48     4.137      148.6721        0.3654      828.8944      829.2598     680.587650      12.62301
  47     5.803      148.7156        0.5035      826.9459      827.4495     678.733898       9.39077
  46     8.139      148.7742        0.6955      824.8978      825.5934     676.819181       6.91513
  45     11.42      148.8349        0.9624      822.7006      823.6630     674.828011       5.12654
  44     16.01      148.8860        1.3325      820.2525      821.5850     672.698955       3.90791
  43     22.46      148.9116        1.8466      817.4463      819.2929     670.381315       3.03272
  42     31.51      148.8647        2.5605      814.2518      816.8123     667.947609       2.27031
  41     44.20      148.6592        3.5536      810.6480      814.2016     665.542311       1.59962
  40     62.00      148.2232        4.9213      806.4553      811.3767     663.153460       1.13259
  39     85.78      147.4457        6.7213      801.7674      808.4886     661.042970       0.74914
  38     109.5      146.5509        8.5202      797.4817      806.0019     659.451054       0.56506
  37     133.1      145.6622       10.2181      793.5510      803.7691     658.106898       0.48270
  36     156.8      144.7833       11.8387      789.8548      801.6935     656.910192       0.42435
  35     180.6      143.8291       13.5302      786.0084      799.5385     655.709450       0.42629
  34     202.8      142.8907       15.1302      782.2124      797.3425     654.451890       0.47747
  33     228.4      141.9242       16.7323      778.0467      794.7790     652.854848       0.52692
  32     252.2      140.9502       18.3089      773.4741      791.7830     650.832853       0.71773
  31     276.0      139.9829       19.8386      768.4389      788.2774     648.294582       0.90098
  30     299.8      139.0052       21.3518      762.7642      784.1160     645.110758       1.13013
  29     323.5      138.0261       22.8397      756.6288      779.4684     641.442358       1.30213
  28     347.3      137.0573       24.2867      750.2254      774.5121     637.454781       1.41543
  27     371.1      136.1028       25.6888      743.7251      769.4139     633.311104       1.47083
  26     394.9      135.1382       27.0840      736.8957      763.9797     628.841501       1.58652
  25     418.6      134.1804       28.4492      729.8721      758.3214     624.140916       1.66851
  24     442.4      133.2292       29.7873      722.6783      752.4656     619.236334       1.74092
  23     466.2      132.2820       31.1031      715.4381      746.5412     614.259204       1.76668
  22     489.9      131.3532       32.3793      708.2772      740.6564     609.303270       1.75915
  21     513.7      130.4288       33.6382      701.0441      734.6822     604.253478       1.79247
  20     537.5      129.5252       34.8611      693.8325      728.6935     599.168308       1.80503
  19     561.3      128.6433       36.0508      686.6319      722.6827     594.039404       1.82055
  18     585.0      127.7653       37.2335      679.3701      716.6036     588.838304       1.84618
  17     608.8      126.9134       38.3815      672.2525      710.6340     583.720593       1.81658
  16     632.6      126.0902       39.4961      665.2624      704.7585     578.668335       1.79334
  15     656.4      125.2846       40.6004      658.1915      698.7918     573.507236       1.83198
  14     680.1      124.5211       41.6720      651.1209      692.7930     568.271860       1.85834
  13     703.9      123.8069       42.7121      644.0582      686.7703     562.963384       1.88429
  12     727.7      123.1430       43.7363      636.8758      680.6121     557.469167       1.95022
  11     751.5      122.5511       44.7438      629.4911      674.2349     551.683850       2.05355
  10     775.2      122.0631       45.7222      621.9804      667.7026     545.639537       2.14548
   9     799.0      121.7131       46.6717      614.3441      661.0158     539.302765       2.24929
   8     822.8       99.4704       73.0610      559.2914      632.3523     532.881900       2.27914
   7     846.6       77.4859       95.2101      509.3230      604.5332     527.047311       2.07104
   6     870.4       55.7144      113.4934      464.0032      577.4966     521.782244       1.86888
   5     894.1       34.1019      128.3124      422.8401      551.1524     517.050567       1.67955
   4     917.9       33.2518      127.8890      417.9828      545.8718     512.620080       1.57264
   3     941.7       32.4138      127.4800      413.2196      540.6996     508.285801       1.53849
   2     965.5       31.5972      127.0839      408.5759      535.6597     504.062563       1.49908
   1     989.2       30.8054      126.6983      404.0479      530.7462     499.940844       1.46273
   0    1013.0       30.0434      126.3210      399.6259      525.9469     495.903519       1.43339



 Wavenumbers:  2600. -  3250. cm-1, ATM      1
 LEVEL PRESSURE   UPWARD FLUX   DIFDOWN FLUX  DIRDOWN FLUX  DOWNWARD FLUX   NET FLUX    HEATING RATE
          mb          W/m2          W/m2          W/m2        W/m2          W/m2       degree/day
  60   .000300        0.4520        0.0000        7.3841        7.3841       6.932112       0.00000
  59    0.1000        0.4520        0.0000        7.3840        7.3840       6.932040       0.00613
  58    0.1403        0.4520        0.0000        7.3840        7.3840       6.932011       0.00614
  57    0.1968        0.4520        0.0000        7.3839        7.3839       6.931969       0.00616
  56    0.2760        0.4520        0.0000        7.3839        7.3839       6.931912       0.00613
  55    0.3871        0.4520        0.0000        7.3838        7.3838       6.931827       0.00641
  54    0.5430        0.4520        0.0000        7.3837        7.3837       6.931702       0.00678
  53    0.7617        0.4520        0.0000        7.3835        7.3835       6.931505       0.00761
  52     1.069        0.4520        0.0000        7.3831        7.3831       6.931175       0.00908
  51     1.499        0.4520        0.0000        7.3825        7.3825       6.930567       0.01193
  50     2.102        0.4520        0.0000        7.3814        7.3814       6.929478       0.01522
  49     2.949        0.4520        0.0000        7.3795        7.3795       6.927592       0.01880
  48     4.137        0.4520        0.0000        7.3765        7.3765       6.924578       0.02142
  47     5.803        0.4520        0.0000        7.3721        7.3721       6.920147       0.02245
  46     8.139        0.4520        0.0000        7.3661        7.3661       6.914140       0.02170
  45     11.42        0.4520        0.0000        7.3586        7.3586       6.906634       0.01932
  44     16.01        0.4520        0.0000        7.3500        7.3500       6.898059       0.01574
  43     22.46        0.4520        0.0000        7.3407        7.3407       6.888746       0.01219
  42     31.51        0.4520        0.0000        7.3297        7.3297       6.877785       0.01023
  41     44.20        0.4520        0.0000        7.3134        7.3134       6.861440       0.01087
  40     62.00        0.4520        0.0000        7.2860        7.2860       6.834045       0.01299
  39     85.78        0.4520        0.0000        7.2438        7.2439       6.791875       0.01497
  38     109.5        0.4520        0.0000        7.1969        7.1969       6.744904       0.01667
  37     133.1        0.4521        0.0001        7.1517        7.1518       6.699701       0.01623
  36     156.8        0.4522        0.0001        7.1092        7.1093       6.657142       0.01509
  35     180.6        0.4522        0.0001        7.0662        7.0663       6.614043       0.01530
  34     202.8        0.4523        0.0001        7.0262        7.0262       6.573917       0.01524
  33     228.4        0.4525        0.0001        6.9846        6.9847       6.532251       0.01375
  32     252.2        0.4527        0.0001        6.9407        6.9408       6.488111       0.01567
  31     276.0        0.4529        0.0001        6.8941        6.8942       6.441301       0.01662
  30     299.8        0.4533        0.0001        6.8424        6.8426       6.389273       0.01847
  29     323.5        0.4537        0.0001        6.7849        6.7850       6.331304       0.02058
  28     347.3        0.4543        0.0001        6.7206        6.7207       6.266421       0.02303
  27     371.1        0.4550        0.0001        6.6496        6.6497       6.194691       0.02546
  26     394.9        0.4559        0.0001        6.5676        6.5677       6.111841       0.02941
  25     418.6        0.4569        0.0001        6.4741        6.4743       6.017348       0.03354
  24     442.4        0.4582        0.0001        6.3671        6.3673       5.909120       0.03842
  23     466.2        0.4596        0.0002        6.2486        6.2487       5.789063       0.04262
  22     489.9        0.4614        0.0002        6.1205        6.1206       5.659268       0.04607
  21     513.7        0.4634        0.0002        5.9812        5.9814       5.517934       0.05017
  20     537.5        0.4658        0.0002        5.8338        5.8340       5.368149       0.05317
  19     561.3        0.4687        0.0002        5.6819        5.6820       5.213358       0.05494
  18     585.0        0.4720        0.0002        5.5274        5.5276       5.055575       0.05601
  17     608.8        0.4758        0.0002        5.3761        5.3762       4.900397       0.05508
  16     632.6        0.4802        0.0002        5.2281        5.2283       4.748058       0.05407
  15     656.4        0.4854        0.0002        5.0791        5.0793       4.593870       0.05473
  14     680.1        0.4915        0.0002        4.9299        4.9300       4.438528       0.05514
  13     703.9        0.4988        0.0002        4.7798        4.7799       4.281145       0.05586
  12     727.7        0.5077        0.0002        4.6253        4.6254       4.117737       0.05800
  11     751.5        0.5189        0.0002        4.4633        4.4634       3.944556       0.06147
  10     775.2        0.5330        0.0002        4.2949        4.2950       3.762062       0.06478
   9     799.0        0.5510        0.0002        4.1205        4.1207       3.569695       0.06828
   8     822.8        0.4268        0.1509        3.6346        3.7855       3.358701       0.07489
   7     846.6        0.3081        0.2864        3.2076        3.4939       3.185797       0.06137
   6     870.4        0.1921        0.3901        2.8322        3.2223       3.030203       0.05523
   5     894.1        0.0778        0.4675        2.5031        2.9706       2.892810       0.04877
   4     917.9        0.0800        0.4467        2.3996        2.8463       2.766337       0.04489
   3     941.7        0.0826        0.4269        2.3005        2.7274       2.644792       0.04314
   2     965.5        0.0856        0.4079        2.2060        2.6139       2.528297       0.04135
   1     989.2        0.0891        0.3899        2.1160        2.5059       2.416748       0.03959
   0    1013.0        0.0934        0.3726        2.0299        2.4024       2.309068       0.03823



 Wavenumbers:  3250. -  4000. cm-1, ATM      1
 LEVEL PRESSURE   UPWARD FLUX   DIFDOWN FLUX  DIRDOWN FLUX  DOWNWARD FLUX   NET FLUX    HEATING RATE
          mb          W/m2          W/m2          W/m2        W/m2          W/m2       degree/day
  60   .000300        0.0043        0.0000       12.4485       12.4485      12.444173       0.00000
  59    0.1000        0.0043        0.0000       12.4290       12.4290      12.424671       1.65079
  58    0.1403        0.0043        0.0000       12.4252       12.4252      12.420957       0.77776
  57    0.1968        0.0043        0.0000       12.4208       12.4208      12.416484       0.66803
  56    0.2760        0.0043        0.0000       12.4156       12.4156      12.411322       0.55013
  55    0.3871        0.0043        0.0000       12.4096       12.4096      12.405289       0.45825
  54    0.5430        0.0043        0.0000       12.4022       12.4022      12.397960       0.39669
  53    0.7617        0.0043        0.0000       12.3928       12.3928      12.388500       0.36506
  52     1.069        0.0043        0.0000       12.3807       12.3807      12.376460       0.33119
  51     1.499        0.0043        0.0000       12.3664       12.3664      12.362102       0.28159
  50     2.102        0.0043        0.0000       12.3498       12.3498      12.345469       0.23256
  49     2.949        0.0043        0.0000       12.3302       12.3302      12.325934       0.19473
  48     4.137        0.0043        0.0000       12.3067       12.3068      12.302468       0.16675
  47     5.803        0.0043        0.0000       12.2766       12.2766      12.272351       0.15257
  46     8.139        0.0043        0.0000       12.2347       12.2348      12.230483       0.15121
  45     11.42        0.0043        0.0000       12.1733       12.1733      12.169069       0.15812
  44     16.01        0.0043        0.0000       12.0830       12.0830      12.078758       0.16577
  43     22.46        0.0043        0.0000       11.9527       11.9527      11.948468       0.17049
  42     31.51        0.0042        0.0000       11.7748       11.7748      11.770583       0.16594
  41     44.20        0.0042        0.0001       11.5551       11.5552      11.550946       0.14607
  40     62.00        0.0042        0.0001       11.3050       11.3051      11.300878       0.11856
  39     85.78        0.0042        0.0001       11.0142       11.0143      11.010091       0.10322
  38     109.5        0.0041        0.0001       10.7175       10.7176      10.713470       0.10529
  37     133.1        0.0041        0.0002       10.4459       10.4460      10.441924       0.09752
  36     156.8        0.0041        0.0002       10.1944       10.1946      10.190536       0.08914
  35     180.6        0.0041        0.0002        9.9218        9.9220       9.917978       0.09676
  34     202.8        0.0040        0.0002        9.5970        9.5973       9.593208       0.12331
  33     228.4        0.0040        0.0002        9.1820        9.1823       9.178271       0.13690
  32     252.2        0.0040        0.0003        8.7004        8.7006       8.696629       0.17096
  31     276.0        0.0040        0.0003        8.1693        8.1695       8.165553       0.18851
  30     299.8        0.0040        0.0003        7.5886        7.5889       7.584899       0.20611
  29     323.5        0.0040        0.0003        6.9823        6.9825       6.978564       0.21522
  28     347.3        0.0040        0.0003        6.3629        6.3631       6.359142       0.21987
  27     371.1        0.0040        0.0002        5.7699        5.7701       5.766154       0.21049
  26     394.9        0.0040        0.0002        5.2041        5.2043       5.200297       0.20086
  25     418.6        0.0040        0.0002        4.6962        4.6964       4.692354       0.18030
  24     442.4        0.0041        0.0002        4.2409        4.2411       4.237038       0.16162
  23     466.2        0.0041        0.0002        3.8328        3.8330       3.828819       0.14490
  22     489.9        0.0042        0.0002        3.4648        3.4650       3.460807       0.13063
  21     513.7        0.0043        0.0002        3.1218        3.1220       3.117638       0.12181
  20     537.5        0.0045        0.0002        2.8040        2.8042       2.799666       0.11287
  19     561.3        0.0047        0.0002        2.5083        2.5084       2.503698       0.10506
  18     585.0        0.0050        0.0001        2.2301        2.2302       2.225229       0.09884
  17     608.8        0.0053        0.0001        1.9731        1.9732       1.967859       0.09136
  16     632.6        0.0058        0.0001        1.7337        1.7338       1.728052       0.08512
  15     656.4        0.0064        0.0001        1.5041        1.5042       1.497825       0.08172
  14     680.1        0.0072        0.0001        1.2888        1.2888       1.281641       0.07674
  13     703.9        0.0083        0.0001        1.0908        1.0908       1.082531       0.07068
  12     727.7        0.0099        0.0001        0.9082        0.9083       0.898347       0.06538
  11     751.5        0.0123        0.0001        0.7390        0.7391       0.726790       0.06090
  10     775.2        0.0159        0.0000        0.5856        0.5857       0.569728       0.05575
   9     799.0        0.0219        0.0000        0.4484        0.4484       0.426570       0.05082
   8     822.8        0.0138        0.0125        0.3034        0.3160       0.302186       0.04415
   7     846.6        0.0080        0.0163        0.1999        0.2162       0.208139       0.03338
   6     870.4        0.0037        0.0153        0.1280        0.1432       0.139558       0.02434
   5     894.1        0.0000        0.0122        0.0794        0.0916       0.091576       0.01703
   4     917.9        0.0000        0.0071        0.0513        0.0584       0.058390       0.01178
   3     941.7        0.0000        0.0039        0.0316        0.0356       0.035535       0.00811
   2     965.5        0.0000        0.0021        0.0186        0.0207       0.020626       0.00529
   1     989.2        0.0001        0.0010        0.0104        0.0115       0.011351       0.00329
   0    1013.0        0.0002        0.0005        0.0056        0.0060       0.005804       0.00197



 Wavenumbers:  4000. -  4650. cm-1, ATM      1
 LEVEL PRESSURE   UPWARD FLUX   DIFDOWN FLUX  DIRDOWN FLUX  DOWNWARD FLUX   NET FLUX    HEATING RATE
          mb          W/m2          W/m2          W/m2        W/m2          W/m2       degree/day
  60   .000300        1.5844        0.0000       14.6183       14.6183      13.033852       0.00000
  59    0.1000        1.5844        0.0000       14.6182       14.6182      13.033843       0.00076
  58    0.1403        1.5844        0.0000       14.6182       14.6182      13.033840       0.00076
  57    0.1968        1.5844        0.0000       14.6182       14.6182      13.033835       0.00077
  56    0.2760        1.5844        0.0000       14.6182       14.6182      13.033827       0.00076
  55    0.3871        1.5844        0.0000       14.6182       14.6182      13.033817       0.00080
  54    0.5430        1.5844        0.0000       14.6182       14.6182      13.033801       0.00085
  53    0.7617        1.5844        0.0000       14.6182       14.6182      13.033777       0.00095
  52     1.069        1.5844        0.0000       14.6181       14.6181      13.033735       0.00114
  51     1.499        1.5844        0.0000       14.6180       14.6181      13.033658       0.00151
  50     2.102        1.5844        0.0000       14.6179       14.6179      13.033517       0.00197
  49     2.949        1.5844        0.0000       14.6176       14.6177      13.033264       0.00252
  48     4.137        1.5844        0.0000       14.6172       14.6172      13.032835       0.00305
  47     5.803        1.5844        0.0000       14.6165       14.6165      13.032143       0.00350
  46     8.139        1.5844        0.0000       14.6154       14.6154      13.031061       0.00391
  45     11.42        1.5844        0.0000       14.6137       14.6138      13.029393       0.00429
  44     16.01        1.5844        0.0001       14.6112       14.6112      13.026865       0.00464
  43     22.46        1.5843        0.0001       14.6074       14.6074      13.023095       0.00493
  42     31.51        1.5843        0.0001       14.6017       14.6018      13.017457       0.00526
  41     44.20        1.5843        0.0002       14.5927       14.5929      13.008556       0.00592
  40     62.00        1.5843        0.0002       14.5788       14.5790      12.994740       0.00655
  39     85.78        1.5843        0.0003       14.5592       14.5596      12.975252       0.00692
  38     109.5        1.5844        0.0004       14.5382       14.5386      12.954200       0.00747
  37     133.1        1.5845        0.0005       14.5177       14.5182      12.933748       0.00734
  36     156.8        1.5846        0.0006       14.4977       14.4983      12.913669       0.00712
  35     180.6        1.5848        0.0007       14.4759       14.4766      12.891825       0.00775
  34     202.8        1.5850        0.0008       14.4536       14.4544      12.869419       0.00851
  33     228.4        1.5853        0.0009       14.4280       14.4289      12.843623       0.00851
  32     252.2        1.5857        0.0010       14.3983       14.3993      12.813581       0.01066
  31     276.0        1.5862        0.0010       14.3635       14.3646      12.778348       0.01251
  30     299.8        1.5870        0.0011       14.3217       14.3228      12.735860       0.01508
  29     323.5        1.5879        0.0012       14.2720       14.2732      12.685366       0.01792
  28     347.3        1.5890        0.0013       14.2129       14.2142      12.625177       0.02136
  27     371.1        1.5903        0.0014       14.1438       14.1451      12.554806       0.02498
  26     394.9        1.5918        0.0015       14.0605       14.0619      12.470113       0.03006
  25     418.6        1.5935        0.0015       13.9639       13.9655      12.372007       0.03482
  24     442.4        1.5954        0.0016       13.8548       13.8564      12.261030       0.03939
  23     466.2        1.5975        0.0017       13.7365       13.7382      12.140706       0.04271
  22     489.9        1.5999        0.0018       13.6136       13.6154      12.015501       0.04444
  21     513.7        1.6026        0.0018       13.4859       13.4878      11.885119       0.04628
  20     537.5        1.6058        0.0019       13.3568       13.3587      11.752827       0.04696
  19     561.3        1.6095        0.0020       13.2261       13.2281      11.618543       0.04767
  18     585.0        1.6138        0.0020       13.0915       13.0935      11.479700       0.04928
  17     608.8        1.6188        0.0021       12.9542       12.9563      11.337522       0.05047
  16     632.6        1.6244        0.0021       12.8109       12.8131      11.188663       0.05284
  15     656.4        1.6311        0.0022       12.6541       12.6563      11.025167       0.05803
  14     680.1        1.6391        0.0022       12.4832       12.4855      10.846396       0.06346
  13     703.9        1.6486        0.0023       12.2977       12.3000      10.651400       0.06922
  12     727.7        1.6603        0.0023       12.0950       12.0973      10.437022       0.07610
  11     751.5        1.6751        0.0024       11.8732       11.8756      10.200511       0.08395
  10     775.2        1.6939        0.0024       11.6374       11.6398       9.945859       0.09039
   9     799.0        1.7185        0.0024       11.3910       11.3934       9.674942       0.09616
   8     822.8        1.3537        0.4840       10.2706       10.7545       9.400811       0.09731
   7     846.6        0.9962        0.8811        9.2691       10.1502       9.154009       0.08760
   6     870.4        0.6441        1.2060        8.3731        9.5791       8.935075       0.07771
   5     894.1        0.2951        1.4661        7.5699        9.0360       8.740896       0.06893
   4     917.9        0.2987        1.4343        7.4257        8.8600       8.561274       0.06376
   3     941.7        0.3029        1.4037        7.2854        8.6892       8.386294       0.06211
   2     965.5        0.3077        1.3742        7.1487        8.5229       8.215191       0.06073
   1     989.2        0.3133        1.3453        7.0151        8.3603       8.047003       0.05969
   0    1013.0        0.3200        1.3170        6.8829        8.1999       7.879864       0.05934



 Wavenumbers:  4650. -  5150. cm-1, ATM      1
 LEVEL PRESSURE   UPWARD FLUX   DIFDOWN FLUX  DIRDOWN FLUX  DOWNWARD FLUX   NET FLUX    HEATING RATE
          mb          W/m2          W/m2          W/m2        W/m2          W/m2       degree/day
  60   .000300        1.1611        0.0000       13.8369       13.8369      12.675773       0.00000
  59    0.1000        1.1611        0.0000       13.8347       13.8347      12.673655       0.17928
  58    0.1403        1.1611        0.0000       13.8339       13.8339      12.672816       0.17564
  57    0.1968        1.1611        0.0000       13.8327       13.8327      12.671650       0.17409
  56    0.2760        1.1611        0.0000       13.8312       13.8312      12.670061       0.16935
  55    0.3871        1.1611        0.0000       13.8290       13.8290      12.667881       0.16558
  54    0.5430        1.1611        0.0000       13.8260       13.8260      12.664946       0.15890
  53    0.7617        1.1611        0.0000       13.8221       13.8221      12.661042       0.15065
  52     1.069        1.1611        0.0000       13.8170       13.8170      12.655889       0.14174
  51     1.499        1.1611        0.0000       13.8105       13.8105      12.649405       0.12716
  50     2.102        1.1611        0.0000       13.8026       13.8026      12.641534       0.11004
  49     2.949        1.1611        0.0000       13.7933       13.7933      12.632237       0.09268
  48     4.137        1.1611        0.0000       13.7830       13.7831      12.621994       0.07279
  47     5.803        1.1611        0.0000       13.7724       13.7724      12.611348       0.05393
  46     8.139        1.1611        0.0000       13.7615       13.7616      12.600523       0.03910
  45     11.42        1.1611        0.0001       13.7497       13.7498      12.588756       0.03029
  44     16.01        1.1610        0.0001       13.7347       13.7348      12.573735       0.02757
  43     22.46        1.1610        0.0001       13.7122       13.7123      12.551258       0.02941
  42     31.51        1.1610        0.0002       13.6758       13.6760      12.514974       0.03385
  41     44.20        1.1611        0.0003       13.6167       13.6170      12.455922       0.03927
  40     62.00        1.1611        0.0004       13.5244       13.5248      12.363641       0.04375
  39     85.78        1.1613        0.0005       13.3944       13.3949      12.233651       0.04614
  38     109.5        1.1615        0.0006       13.2650       13.2657      12.104154       0.04597
  37     133.1        1.1618        0.0008       13.1487       13.1495      11.987695       0.04182
  36     156.8        1.1622        0.0009       13.0449       13.0457      11.883575       0.03692
  35     180.6        1.1626        0.0010       12.9437       12.9447      11.782038       0.03605
  34     202.8        1.1632        0.0011       12.8534       12.8545      11.691366       0.03443
  33     228.4        1.1639        0.0012       12.7658       12.7670      11.603180       0.02910
  32     252.2        1.1647        0.0014       12.6801       12.6815      11.516848       0.03064
  31     276.0        1.1656        0.0015       12.5950       12.5965      11.430877       0.03052
  30     299.8        1.1668        0.0016       12.5053       12.5069      11.340037       0.03224
  29     323.5        1.1684        0.0017       12.4093       12.4110      11.242623       0.03458
  28     347.3        1.1701        0.0018       12.3075       12.3093      11.139178       0.03672
  27     371.1        1.1722        0.0019       12.1993       12.2012      11.029067       0.03909
  26     394.9        1.1746        0.0020       12.0815       12.0836      10.908993       0.04262
  25     418.6        1.1773        0.0021       11.9549       11.9570      10.779644       0.04591
  24     442.4        1.1805        0.0022       11.8185       11.8208      10.640252       0.04948
  23     466.2        1.1841        0.0023       11.6730       11.6753      10.491194       0.05291
  22     489.9        1.1882        0.0024       11.5203       11.5227      10.334499       0.05562
  21     513.7        1.1928        0.0025       11.3577       11.3602      10.167320       0.05934
  20     537.5        1.1981        0.0026       11.1878       11.1904       9.992327       0.06212
  19     561.3        1.2040        0.0026       11.0105       11.0131       9.809130       0.06503
  18     585.0        1.2108        0.0027       10.8249       10.8276       9.616820       0.06826
  17     608.8        1.2183        0.0028       10.6366       10.6394       9.421059       0.06949
  16     632.6        1.2268        0.0028       10.4463       10.4492       9.222389       0.07052
  15     656.4        1.2365        0.0029       10.2497       10.2526       9.016009       0.07326
  14     680.1        1.2477        0.0029       10.0509       10.0539       8.806194       0.07448
  13     703.9        1.2603        0.0030        9.8514        9.8544       8.594010       0.07532
  12     727.7        1.2751        0.0030        9.6483        9.6513       8.376162       0.07733
  11     751.5        1.2928        0.0030        9.4402        9.4432       8.150469       0.08011
  10     775.2        1.3138        0.0031        9.2294        9.2325       7.918677       0.08228
   9     799.0        1.3391        0.0031        9.0169        9.0200       7.680852       0.08442
   8     822.8        1.0544        0.3833        8.1203        8.5036       7.449180       0.08223
   7     846.6        0.7746        0.6955        7.3177        8.0132       7.238597       0.07475
   6     870.4        0.4985        0.9480        6.5996        7.5476       7.049055       0.06728
   5     894.1        0.2249        1.1495        5.9546        7.1041       6.879237       0.06028
   4     917.9        0.2285        1.1209        5.8277        6.9486       6.720113       0.05648
   3     941.7        0.2326        1.0933        5.7036        6.7969       6.564341       0.05529
   2     965.5        0.2372        1.0667        5.5827        6.6494       6.412269       0.05398
   1     989.2        0.2423        1.0410        5.4647        6.5057       6.263356       0.05285
   0    1013.0        0.2482        1.0162        5.3494        6.3656       6.117340       0.05184



 Wavenumbers:  5150. -  6150. cm-1, ATM      1
 LEVEL PRESSURE   UPWARD FLUX   DIFDOWN FLUX  DIRDOWN FLUX  DOWNWARD FLUX   NET FLUX    HEATING RATE
          mb          W/m2          W/m2          W/m2        W/m2          W/m2       degree/day
  60   .000300        2.7473        0.0000       34.6891       34.6891      31.941726       0.00000
  59    0.1000        2.7473        0.0000       34.6886       34.6886      31.941230       0.04199
  58    0.1403        2.7473        0.0000       34.6884       34.6884      31.941030       0.04192
  57    0.1968        2.7473        0.0000       34.6881       34.6881      31.940748       0.04208
  56    0.2760        2.7473        0.0000       34.6877       34.6877      31.940357       0.04165
  55    0.3871        2.7473        0.0000       34.6871       34.6871      31.939808       0.04174
  54    0.5430        2.7473        0.0000       34.6864       34.6864      31.939042       0.04145
  53    0.7617        2.7473        0.0000       34.6853       34.6853      31.937973       0.04125
  52     1.069        2.7473        0.0000       34.6838       34.6838      31.936467       0.04143
  51     1.499        2.7473        0.0000       34.6817       34.6817      31.934377       0.04098
  50     2.102        2.7473        0.0001       34.6787       34.6788      31.931490       0.04038
  49     2.949        2.7473        0.0001       34.6746       34.6747      31.927413       0.04064
  48     4.137        2.7473        0.0001       34.6689       34.6690      31.921743       0.04029
  47     5.803        2.7472        0.0002       34.6610       34.6612      31.913928       0.03959
  46     8.139        2.7472        0.0002       34.6502       34.6504      31.903221       0.03867
  45     11.42        2.7472        0.0003       34.6356       34.6359      31.888685       0.03742
  44     16.01        2.7471        0.0004       34.6159       34.6163      31.869204       0.03576
  43     22.46        2.7470        0.0006       34.5899       34.5905      31.843474       0.03367
  42     31.51        2.7469        0.0008       34.5564       34.5572      31.810261       0.03098
  41     44.20        2.7468        0.0012       34.5139       34.5151      31.768274       0.02792
  40     62.00        2.7467        0.0016       34.4619       34.4635      31.716794       0.02441
  39     85.78        2.7466        0.0023       34.4020       34.4043      31.657673       0.02099
  38     109.5        2.7465        0.0029       34.3491       34.3520      31.605536       0.01851
  37     133.1        2.7464        0.0035       34.3031       34.3066      31.560243       0.01627
  36     156.8        2.7463        0.0041       34.2595       34.2636      31.517288       0.01523
  35     180.6        2.7462        0.0047       34.2031       34.2078      31.461562       0.01978
  34     202.8        2.7462        0.0053       34.1091       34.1145      31.368300       0.03541
  33     228.4        2.7461        0.0059       33.9252       33.9311      31.184995       0.06048
  32     252.2        2.7461        0.0065       33.6087       33.6151      30.868988       0.11217
  31     276.0        2.7462        0.0070       33.1225       33.1295      30.383317       0.17239
  30     299.8        2.7463        0.0074       32.4763       32.4838      29.737451       0.22926
  29     323.5        2.7466        0.0078       31.7610       31.7688      29.022273       0.25386
  28     347.3        2.7469        0.0082       31.0137       31.0220      28.275031       0.26524
  27     371.1        2.7475        0.0086       30.2247       30.2332      27.485794       0.28015
  26     394.9        2.7482        0.0088       29.3520       29.3608      26.612660       0.30993
  25     418.6        2.7491        0.0091       28.4400       28.4491      25.700014       0.32395
  24     442.4        2.7503        0.0093       27.5194       27.5287      24.778441       0.32712
  23     466.2        2.7518        0.0095       26.6227       26.6322      23.880494       0.31873
  22     489.9        2.7536        0.0097       25.7669       25.7765      23.022963       0.30439
  21     513.7        2.7559        0.0099       24.9371       24.9469      22.191037       0.29530
  20     537.5        2.7588        0.0100       24.1537       24.1638      21.404985       0.27902
  19     561.3        2.7623        0.0102       23.4247       23.4349      20.672560       0.25998
  18     585.0        2.7667        0.0103       22.7500       22.7603      19.993590       0.24101
  17     608.8        2.7720        0.0105       22.1480       22.1585      19.386498       0.21549
  16     632.6        2.7784        0.0107       21.6116       21.6223      18.843896       0.19260
  15     656.4        2.7863        0.0109       21.1193       21.1302      18.343921       0.17747
  14     680.1        2.7960        0.0110       20.6722       20.6832      17.887220       0.16211
  13     703.9        2.8081        0.0112       20.2664       20.2776      17.469534       0.14826
  12     727.7        2.8233        0.0114       19.8884       19.8998      17.076509       0.13951
  11     751.5        2.8431        0.0116       19.5264       19.5381      16.694945       0.13544
  10     775.2        2.8688        0.0118       19.1765       19.1883      16.319503       0.13327
   9     799.0        2.9026        0.0119       18.8290       18.8410      15.938335       0.13530
   8     822.8        2.2931        0.8127       17.0360       17.8486      15.555532       0.13588
   7     846.6        1.6944        1.4795       15.4199       16.8994      15.204971       0.12443
   6     870.4        1.1039        2.0272       13.9634       15.9906      14.886714       0.11297
   5     894.1        0.5187        2.4682       12.6507       15.1189      14.600187       0.10171
   4     917.9        0.5220        2.4215       12.4348       14.8563      14.334258       0.09439
   3     941.7        0.5260        2.3777       12.2273       14.6050      14.079016       0.09060
   2     965.5        0.5309        2.3372       12.0307       14.3679      13.837024       0.08590
   1     989.2        0.5370        2.3001       11.8462       14.1463      13.609264       0.08083
   0    1013.0        0.5448        2.2660       11.6739       13.9399      13.395075       0.07604



 Wavenumbers:  6150. -  7700. cm-1, ATM      1
 LEVEL PRESSURE   UPWARD FLUX   DIFDOWN FLUX  DIRDOWN FLUX  DOWNWARD FLUX   NET FLUX    HEATING RATE
          mb          W/m2          W/m2          W/m2        W/m2          W/m2       degree/day
  60   .000300        4.2851        0.0000       64.1588       64.1588      59.873707       0.00000
  59    0.1000        4.2851        0.0000       64.1581       64.1581      59.873048       0.05584
  58    0.1403        4.2850        0.0000       64.1578       64.1578      59.872780       0.05593
  57    0.1968        4.2850        0.0000       64.1574       64.1574      59.872404       0.05625
  56    0.2760        4.2850        0.0000       64.1569       64.1569      59.871880       0.05580
  55    0.3871        4.2850        0.0000       64.1561       64.1562      59.871142       0.05604
  54    0.5430        4.2850        0.0001       64.1551       64.1551      59.870112       0.05578
  53    0.7617        4.2850        0.0001       64.1536       64.1537      59.868671       0.05562
  52     1.069        4.2850        0.0001       64.1515       64.1516      59.866638       0.05590
  51     1.499        4.2849        0.0002       64.1486       64.1487      59.863821       0.05524
  50     2.102        4.2849        0.0002       64.1446       64.1448      59.859933       0.05437
  49     2.949        4.2848        0.0003       64.1389       64.1392      59.854448       0.05468
  48     4.137        4.2847        0.0005       64.1310       64.1315      59.846816       0.05423
  47     5.803        4.2845        0.0007       64.1201       64.1208      59.836266       0.05344
  46     8.139        4.2843        0.0009       64.1051       64.1060      59.821732       0.05249
  45     11.42        4.2839        0.0013       64.0845       64.0858      59.801815       0.05128
  44     16.01        4.2835        0.0018       64.0565       64.0583      59.774765       0.04965
  43     22.46        4.2829        0.0025       64.0187       64.0212      59.738336       0.04767
  42     31.51        4.2820        0.0035       63.9683       63.9718      59.689828       0.04525
  41     44.20        4.2808        0.0049       63.9021       63.9070      59.626284       0.04226
  40     62.00        4.2790        0.0069       63.8170       63.8239      59.544854       0.03861
  39     85.78        4.2767        0.0095       63.7137       63.7232      59.446457       0.03493
  38     109.5        4.2744        0.0121       63.6174       63.6296      59.355152       0.03241
  37     133.1        4.2722        0.0147       63.5307       63.5454      59.273186       0.02943
  36     156.8        4.2700        0.0172       63.4470       63.4642      59.194143       0.02803
  35     180.6        4.2677        0.0198       63.3411       63.3609      59.093196       0.03584
  34     202.8        4.2655        0.0223       63.1774       63.1997      58.934174       0.06038
  33     228.4        4.2634        0.0248       62.8910       62.9158      58.652438       0.09296
  32     252.2        4.2613        0.0272       62.4548       62.4820      58.220696       0.15325
  31     276.0        4.2594        0.0294       61.8034       61.8328      57.573432       0.22975
  30     299.8        4.2576        0.0314       60.8493       60.8807      56.623060       0.33734
  29     323.5        4.2561        0.0332       59.6406       59.6738      55.417697       0.42785
  28     347.3        4.2551        0.0349       58.2994       58.3342      54.079188       0.47512
  27     371.1        4.2544        0.0363       56.9373       56.9737      52.719277       0.48271
  26     394.9        4.2543        0.0377       55.4853       55.5230      51.268772       0.51487
  25     418.6        4.2548        0.0388       53.9434       53.9822      49.727447       0.54711
  24     442.4        4.2560        0.0398       52.3152       52.3550      48.098981       0.57804
  23     466.2        4.2581        0.0407       50.6699       50.7105      46.452399       0.58447
  22     489.9        4.2613        0.0414       49.0609       49.1023      44.841063       0.57196
  21     513.7        4.2658        0.0421       47.4627       47.5048      43.239038       0.56865
  20     537.5        4.2718        0.0426       45.9016       45.9443      41.672485       0.55606
  19     561.3        4.2797        0.0431       44.3828       44.4259      40.146211       0.54176
  18     585.0        4.2898        0.0435       42.9069       42.9504      38.660546       0.52735
  17     608.8        4.3024        0.0439       41.5192       41.5631      37.260768       0.49686
  16     632.6        4.3177        0.0442       40.2123       40.2565      35.938822       0.46924
  15     656.4        4.3370        0.0446       38.9372       38.9817      34.644688       0.45936
  14     680.1        4.3612        0.0448       37.7038       37.7486      33.387390       0.44629
  13     703.9        4.3915        0.0450       36.5148       36.5598      32.168254       0.43274
  12     727.7        4.4302        0.0451       35.3478       35.3929      30.962672       0.42793
  11     751.5        4.4812        0.0452       34.1879       34.2331      29.751889       0.42978
  10     775.2        4.5484        0.0452       33.0529       33.0981      28.549715       0.42672
   9     799.0        4.6391        0.0451       31.9455       31.9906      27.351567       0.42529
   8     822.8        3.6393        1.3694       28.4704       29.8398      26.200536       0.40857
   7     846.6        2.6664        2.4386       25.4354       27.8740      25.207662       0.35243
   6     870.4        1.7127        3.2981       22.7694       26.0675      24.354750       0.30275
   5     894.1        0.7696        3.9660       20.4187       24.3847      23.615094       0.26255
   4     917.9        0.7785        3.8493       19.8790       23.7283      22.949775       0.23616
   3     941.7        0.7893        3.7411       19.3679       23.1090      22.319729       0.22364
   2     965.5        0.8023        3.6406       18.8863       22.5269      21.724654       0.21123
   1     989.2        0.8181        3.5473       18.4317       21.9790      21.160875       0.20008
   0    1013.0        0.8379        3.4600       18.0020       21.4621      20.624119       0.19057



 Wavenumbers:  7700. -  8050. cm-1, ATM      1
 LEVEL PRESSURE   UPWARD FLUX   DIFDOWN FLUX  DIRDOWN FLUX  DOWNWARD FLUX   NET FLUX    HEATING RATE
          mb          W/m2          W/m2          W/m2        W/m2          W/m2       degree/day
  60   .000300        2.1583        0.0000       15.1626       15.1626      13.004334       0.00000
  59    0.1000        2.1583        0.0000       15.1625       15.1625      13.004160       0.01477
  58    0.1403        2.1583        0.0000       15.1624       15.1624      13.004089       0.01486
  57    0.1968        2.1583        0.0000       15.1623       15.1623      13.003989       0.01493
  56    0.2760        2.1583        0.0000       15.1622       15.1622      13.003850       0.01481
  55    0.3871        2.1583        0.0000       15.1620       15.1620      13.003654       0.01488
  54    0.5430        2.1584        0.0000       15.1617       15.1617      13.003380       0.01482
  53    0.7617        2.1584        0.0000       15.1613       15.1614      13.002997       0.01479
  52     1.069        2.1584        0.0000       15.1608       15.1609      13.002456       0.01489
  51     1.499        2.1585        0.0001       15.1601       15.1602      13.001703       0.01476
  50     2.102        2.1585        0.0001       15.1591       15.1592      13.000660       0.01459
  49     2.949        2.1586        0.0001       15.1576       15.1578      12.999180       0.01475
  48     4.137        2.1587        0.0002       15.1556       15.1558      12.997104       0.01476
  47     5.803        2.1589        0.0003       15.1528       15.1531      12.994201       0.01470
  46     8.139        2.1591        0.0004       15.1489       15.1493      12.990143       0.01466
  45     11.42        2.1595        0.0005       15.1434       15.1440      12.984464       0.01462
  44     16.01        2.1600        0.0007       15.1358       15.1365      12.976531       0.01456
  43     22.46        2.1607        0.0010       15.1251       15.1261      12.965441       0.01451
  42     31.51        2.1616        0.0014       15.1101       15.1116      12.949948       0.01445
  41     44.20        2.1630        0.0020       15.0892       15.0913      12.928300       0.01440
  40     62.00        2.1649        0.0028       15.0604       15.0632      12.898340       0.01420
  39     85.78        2.1675        0.0039       15.0223       15.0262      12.858761       0.01405
  38     109.5        2.1701        0.0050       14.9841       14.9891      12.819003       0.01411
  37     133.1        2.1727        0.0060       14.9478       14.9539      12.781137       0.01360
  36     156.8        2.1753        0.0070       14.9129       14.9200      12.744667       0.01293
  35     180.6        2.1781        0.0081       14.8763       14.8844      12.706318       0.01361
  34     202.8        2.1808        0.0091       14.8414       14.8506      12.669748       0.01389
  33     228.4        2.1836        0.0102       14.8062       14.8164      12.632762       0.01220
  32     252.2        2.1865        0.0112       14.7713       14.7825      12.595969       0.01306
  31     276.0        2.1894        0.0122       14.7370       14.7493      12.559835       0.01283
  30     299.8        2.1924        0.0133       14.7027       14.7160      12.523604       0.01286
  29     323.5        2.1955        0.0143       14.6685       14.6828      12.487381       0.01286
  28     347.3        2.1986        0.0153       14.6347       14.6501      12.451484       0.01274
  27     371.1        2.2017        0.0163       14.6014       14.6177      12.415987       0.01260
  26     394.9        2.2050        0.0173       14.5675       14.5849      12.379844       0.01283
  25     418.6        2.2084        0.0183       14.5336       14.5520      12.343529       0.01289
  24     442.4        2.2120        0.0193       14.4995       14.5189      12.306903       0.01300
  23     466.2        2.2157        0.0203       14.4651       14.4855      12.269810       0.01317
  22     489.9        2.2194        0.0213       14.4307       14.4521      12.232635       0.01320
  21     513.7        2.2234        0.0223       14.3957       14.4180      12.194595       0.01350
  20     537.5        2.2275        0.0233       14.3603       14.3836      12.156118       0.01366
  19     561.3        2.2318        0.0243       14.3246       14.3488      12.117036       0.01387
  18     585.0        2.2364        0.0252       14.2875       14.3128      12.076384       0.01443
  17     608.8        2.2412        0.0262       14.2500       14.2762      12.035060       0.01467
  16     632.6        2.2461        0.0271       14.2119       14.2391      11.992926       0.01496
  15     656.4        2.2515        0.0281       14.1722       14.2003      11.948805       0.01566
  14     680.1        2.2572        0.0290       14.1314       14.1604      11.903182       0.01619
  13     703.9        2.2632        0.0299       14.0891       14.1190      11.855777       0.01683
  12     727.7        2.2698        0.0308       14.0446       14.0754      11.805589       0.01781
  11     751.5        2.2771        0.0317       13.9973       14.0290      11.751922       0.01905
  10     775.2        2.2851        0.0326       13.9473       13.9800      11.694901       0.02024
   9     799.0        2.2938        0.0335       13.8944       13.9279      11.634089       0.02159
   8     822.8        1.8259        0.6396       12.7570       13.3966      11.570636       0.02252
   7     846.6        1.3619        1.1582       11.7126       12.8709      11.508920       0.02191
   6     870.4        0.9014        1.5973       10.7538       12.3511      11.449714       0.02102
   5     894.1        0.4435        1.9668        9.8699       11.8367      11.393164       0.02007
   4     917.9        0.4450        1.9567        9.8250       11.7817      11.336761       0.02002
   3     941.7        0.4466        1.9464        9.7785       11.7249      11.278339       0.02074
   2     965.5        0.4483        1.9357        9.7308       11.6665      11.218193       0.02135
   1     989.2        0.4502        1.9247        9.6818       11.6065      11.156327       0.02196
   0    1013.0        0.4523        1.9135        9.6314       11.5449      11.092683       0.02260



 Wavenumbers:  8050. - 12850. cm-1, ATM      1
 LEVEL PRESSURE   UPWARD FLUX   DIFDOWN FLUX  DIRDOWN FLUX  DOWNWARD FLUX   NET FLUX    HEATING RATE
          mb          W/m2          W/m2          W/m2        W/m2          W/m2       degree/day
  60   .000300       27.5610        0.0000      212.2880      212.2880     184.726974       0.00000
  59    0.1000       27.5608        0.0002      212.2876      212.2878     184.726974       0.00000
  58    0.1403       27.5608        0.0003      212.2874      212.2877     184.726974       0.00000
  57    0.1968       27.5607        0.0004      212.2872      212.2876     184.726974       0.00000
  56    0.2760       27.5605        0.0006      212.2869      212.2875     184.726974      -0.00000
  55    0.3871       27.5603        0.0009      212.2864      212.2873     184.726974       0.00000
  54    0.5430       27.5601        0.0012      212.2858      212.2870     184.726974       0.00000
  53    0.7617       27.5597        0.0017      212.2850      212.2867     184.726974       0.00000
  52     1.069       27.5592        0.0024      212.2837      212.2861     184.726974       0.00000
  51     1.499       27.5584        0.0033      212.2820      212.2854     184.726974      -0.00000
  50     2.102       27.5574        0.0047      212.2797      212.2844     184.726974       0.00000
  49     2.949       27.5559        0.0066      212.2763      212.2829     184.726974      -0.00000
  48     4.137       27.5539        0.0092      212.2717      212.2809     184.726974       0.00000
  47     5.803       27.5510        0.0129      212.2651      212.2780     184.726974       0.00000
  46     8.139       27.5470        0.0181      212.2559      212.2740     184.726974      -0.00000
  45     11.42       27.5414        0.0253      212.2430      212.2684     184.726974       0.00000
  44     16.01       27.5335        0.0355      212.2250      212.2605     184.726974       0.00000
  43     22.46       27.5225        0.0497      212.1998      212.2495     184.726974      -0.00000
  42     31.51       27.5071        0.0697      212.1643      212.2340     184.726974       0.00000
  41     44.20       27.4853        0.0978      212.1145      212.2123     184.726974      -0.00000
  40     62.00       27.4550        0.1370      212.0450      212.1820     184.726974       0.00000
  39     85.78       27.4145        0.1892      211.9522      212.1414     184.726974       0.00000
  38     109.5       27.3734        0.2424      211.8451      212.0875     184.714124       0.00456
  37     133.1       27.3338        0.2935      211.7421      212.0356     184.701809       0.00442
  36     156.8       27.2953        0.3433      211.6412      211.9844     184.689158       0.00449
  35     180.6       27.2543        0.3962      211.5292      211.9253     184.671054       0.00643
  34     202.8       27.2148        0.4471      211.4041      211.8512     184.636352       0.01318
  33     228.4       27.1746        0.4989      211.2349      211.7338     184.559181       0.02546
  32     252.2       27.1346        0.5508      211.0003      211.5511     184.416527       0.05064
  31     276.0       27.0954        0.6018      210.6760      211.2778     184.182425       0.08310
  30     299.8       27.0566        0.6530      210.2328      210.8857     183.829166       0.12539
  29     323.5       27.0187        0.7039      209.6743      210.3782     183.359514       0.16671
  28     347.3       26.9825        0.7539      209.0175      209.7714     182.788972       0.20252
  27     371.1       26.9483        0.8029      208.2872      209.0901     182.141786       0.22972
  26     394.9       26.9158        0.8520      207.4416      208.2936     181.377810       0.27118
  25     418.6       26.8859        0.9003      206.4758      207.3762     180.490257       0.31504
  24     442.4       26.8592        0.9478      205.3737      206.3215     179.462309       0.36488
  23     466.2       26.8360        0.9947      204.1488      205.1435     178.307511       0.40991
  22     489.9       26.8171        1.0402      202.8236      203.8638     177.046645       0.44756
  21     513.7       26.8033        1.0849      201.3667      202.4517     175.648387       0.49632
  20     537.5       26.7958        1.1283      199.7935      200.9218     174.125992       0.54039
  19     561.3       26.7957        1.1701      198.0998      199.2699     172.474218       0.58631
  18     585.0       26.8038        1.2115      196.2781      197.4897     170.685875       0.63479
  17     608.8       26.8209        1.2515      194.3934      195.6450     168.824080       0.66086
  16     632.6       26.8485        1.2902      192.4530      193.7431     166.894670       0.68486
  15     656.4       26.8900        1.3281      190.4000      191.7281     164.838063       0.73001
  14     680.1       26.9491        1.3643      188.2528      189.6171     162.667970       0.77029
  13     703.9       27.0294        1.3988      186.0204      187.4192     160.389754       0.80867
  12     727.7       27.1381        1.4319      183.6647      185.0966     157.958589       0.86296
  11     751.5       27.2863        1.4634      181.1466      182.6100     155.323737       0.93526
  10     775.2       27.4846        1.4926      178.4925      179.9851     152.500537       1.00212
   9     799.0       27.7495        1.5196      175.7106      177.2302     149.480661       1.07193
   8     822.8       21.9691        8.9919      159.3559      168.3478     146.378708       1.10107
   7     846.6       16.2803       15.2376      144.5628      159.8004     143.520110       1.01468
   6     870.4       10.6622       20.3801      131.2033      151.5834     140.921192       0.92251
   5     894.1        5.0907       24.5509      119.1176      143.6686     138.577880       0.83178
   4     917.9        5.1038       24.1682      117.3130      141.4811     136.377302       0.78111
   3     941.7        5.1239       23.7988      115.5465      139.3454     134.221489       0.76522
   2     965.5        5.1522       23.4439      113.8285      137.2724     132.120222       0.74586
   1     989.2        5.1905       23.1018      112.1579      135.2597     130.069212       0.72787
   0    1013.0        5.2414       22.7716      110.5305      133.3021     128.060729       0.71308



 Wavenumbers: 12850. - 16000. cm-1, ATM      1
 LEVEL PRESSURE   UPWARD FLUX   DIFDOWN FLUX  DIRDOWN FLUX  DOWNWARD FLUX   NET FLUX    HEATING RATE
          mb          W/m2          W/m2          W/m2        W/m2          W/m2       degree/day
  60   .000300       23.4331        0.0000      133.0172      133.0172     109.584112       0.00000
  59    0.1000       23.4328        0.0005      133.0095      133.0100     109.577258       0.58019
  58    0.1403       23.4327        0.0007      133.0064      133.0071     109.574471       0.58352
  57    0.1968       23.4325        0.0010      133.0021      133.0031     109.570556       0.58477
  56    0.2760       23.4324        0.0013      132.9962      132.9975     109.565154       0.57562
  55    0.3871       23.4322        0.0019      132.9880      132.9899     109.557693       0.56672
  54    0.5430       23.4320        0.0026      132.9769      132.9795     109.547575       0.54774
  53    0.7617       23.4318        0.0037      132.9618      132.9655     109.533747       0.53357
  52     1.069       23.4318        0.0052      132.9413      132.9465     109.514692       0.52415
  51     1.499       23.4322        0.0073      132.9135      132.9208     109.488560       0.51249
  50     2.102       23.4337        0.0102      132.8748      132.8850     109.451377       0.51988
  49     2.949       23.4373        0.0143      132.8176      132.8318     109.394587       0.56609
  48     4.137       23.4444        0.0200      132.7325      132.7525     109.308119       0.61445
  47     5.803       23.4560        0.0281      132.6115      132.6395     109.183591       0.63084
  46     8.139       23.4715        0.0393      132.4493      132.4886     109.017076       0.60138
  45     11.42       23.4900        0.0549      132.2424      132.2974     108.807357       0.53995
  44     16.01       23.5107        0.0768      131.9828      132.0596     108.548909       0.47439
  43     22.46       23.5324        0.1074      131.6592      131.7666     108.234212       0.41179
  42     31.51       23.5504        0.1502      131.2747      131.4249     107.874422       0.33564
  41     44.20       23.5556        0.2100      130.8450      131.0551     107.499444       0.24938
  40     62.00       23.5416        0.2933      130.3669      130.6602     107.118566       0.18058
  39     85.78       23.4963        0.4043      129.8828      130.2871     106.790792       0.11635
  38     109.5       23.4403        0.5173      129.4797      129.9970     106.556639       0.08311
  37     133.1       23.3818        0.6257      129.1217      129.7475     106.365720       0.06856
  36     156.8       23.3222        0.7309      128.7892      129.5202     106.197974       0.05948
  35     180.6       23.2555        0.8424      128.4511      129.2936     106.038051       0.05678
  34     202.8       23.1881        0.9495      128.1377      129.0873     105.899144       0.05274
  33     228.4       23.1178        1.0585      127.8216      128.8800     105.762200       0.04518
  32     252.2       23.0465        1.1674      127.5049      128.6723     105.625757       0.04843
  31     276.0       22.9753        1.2747      127.1922      128.4669     105.491593       0.04762
  30     299.8       22.9030        1.3826      126.8751      128.2577     105.354657       0.04861
  29     323.5       22.8307        1.4903      126.5537      128.0440     105.213308       0.05017
  28     347.3       22.7594        1.5968      126.2298      127.8266     105.067191       0.05187
  27     371.1       22.6894        1.7016      125.9047      127.6063     104.916973       0.05332
  26     394.9       22.6190        1.8075      125.5688      127.3763     104.757286       0.05668
  25     418.6       22.5497        1.9127      125.2257      127.1384     104.588723       0.05983
  24     442.4       22.4816        2.0174      124.8736      126.8910     104.409341       0.06367
  23     466.2       22.4147        2.1219      124.5111      126.6330     104.218318       0.06781
  22     489.9       22.3499        2.2247      124.1420      126.3668     104.016834       0.07152
  21     513.7       22.2867        2.3276      123.7577      126.0853     103.798541       0.07748
  20     537.5       22.2264        2.4289      123.3614      125.7904     103.563959       0.08327
  19     561.3       22.1692        2.5288      122.9509      125.4797     103.310439       0.08999
  18     585.0       22.1142        2.6293      122.5175      125.1468     103.032664       0.09860
  17     608.8       22.0623        2.7281      122.0752      124.8033     102.740961       0.10354
  16     632.6       22.0140        2.8251      121.6228      124.4479     102.433910       0.10899
  15     656.4       21.9689        2.9222      121.1473      124.0695     102.100637       0.11830
  14     680.1       21.9291        3.0173      120.6531      123.6704     101.741330       0.12754
  13     703.9       21.8954        3.1103      120.1376      123.2479     101.352428       0.13804
  12     727.7       21.8688        3.2025      119.5892      122.7916     100.922887       0.15247
  11     751.5       21.8508        3.2936      119.0038      122.2974     100.446611       0.16906
  10     775.2       21.8436        3.3823      118.3848      121.7671      99.923511       0.18568
   9     799.0       21.8494        3.4684      117.7284      121.1968      99.347390       0.20450
   8     822.8       17.7940        8.6221      107.9073      116.5294      98.735406       0.21723
   7     846.6       13.7758       13.0288       98.8905      111.9193      98.143418       0.21013
   6     870.4        9.7899       16.7523       90.6179      107.3702      97.580325       0.19987
   5     894.1        5.8314       19.8434       83.0379      102.8813      97.049957       0.18826
   4     917.9        5.7824       19.7877       82.5231      102.3108      96.528378       0.18514
   3     941.7        5.7357       19.7301       82.0019      101.7320      95.996275       0.18887
   2     965.5        5.6918       19.6710       81.4784      101.1494      95.457576       0.19122
   1     989.2        5.6510       19.6106       80.9535      100.5640      94.913050       0.19324
   0    1013.0        5.6135       19.5488       80.4274       99.9762      94.362734       0.19538



 Wavenumbers: 16000. - 22650. cm-1, ATM      1
 LEVEL PRESSURE   UPWARD FLUX   DIFDOWN FLUX  DIRDOWN FLUX  DOWNWARD FLUX   NET FLUX    HEATING RATE
          mb          W/m2          W/m2          W/m2        W/m2          W/m2       degree/day
  60   .000300       50.3410        0.0000      212.0812      212.0812     161.740190       0.00000
  59    0.1000       50.3395        0.0027      212.0760      212.0788     161.739303       0.07510
  58    0.1403       50.3389        0.0038      212.0737      212.0775     161.738592       0.14885
  57    0.1968       50.3382        0.0054      212.0701      212.0755     161.737306       0.19202
  56    0.2760       50.3373        0.0075      212.0648      212.0724     161.735046       0.24088
  55    0.3871       50.3362        0.0106      212.0569      212.0674     161.731234       0.28951
  54    0.5430       50.3349        0.0148      212.0449      212.0597     161.724844       0.34593
  53    0.7617       50.3335        0.0208      212.0263      212.0471     161.713568       0.43512
  52     1.069       50.3325        0.0292      211.9965      212.0258     161.693297       0.55759
  51     1.499       50.3327        0.0409      211.9488      211.9897     161.657010       0.71167
  50     2.102       50.3364        0.0571      211.8701      211.9272     161.590813       0.92552
  49     2.949       50.3478        0.0801      211.7353      211.8154     161.467621       1.22801
  48     4.137       50.3721        0.1123      211.5152      211.6276     161.255490       1.50742
  47     5.803       50.4120        0.1573      211.1861      211.3433     160.931370       1.64193
  46     8.139       50.4657        0.2201      210.7354      210.9554     160.489791       1.59479
  45     11.42       50.5278        0.3078      210.1559      210.4637     159.935823       1.42627
  44     16.01       50.5943        0.4301      209.4264      209.8565     159.262183       1.23648
  43     22.46       50.6591        0.6009      208.5155      209.1164     158.457263       1.05327
  42     31.51       50.7009        0.8392      207.4281      208.2673     157.566446       0.83101
  41     44.20       50.6804        1.1724      206.1997      207.3721     156.691659       0.58177
  40     62.00       50.5683        1.6343      204.7997      206.4340     155.865774       0.39156
  39     85.78       50.3142        2.2473      203.3150      205.5624     155.248128       0.21924
  38     109.5       49.9982        2.8657      202.0234      204.8891     154.890873       0.12681
  37     133.1       49.6787        3.4560      200.8408      204.2969     154.618200       0.09792
  36     156.8       49.3592        4.0258      199.7260      203.7518     154.392556       0.08001
  35     180.6       49.0086        4.6267      198.5859      203.2126     154.204007       0.06694
  34     202.8       48.6603        5.2011      197.5309      202.7320     154.071632       0.05026
  33     228.4       48.2995        5.7826      196.4789      202.2614     153.961909       0.03620
  32     252.2       47.9342        6.3611      195.4408      201.8019     153.867656       0.03346
  31     276.0       47.5697        6.9285      194.4310      201.3595     153.789778       0.02764
  30     299.8       47.1996        7.4961      193.4267      200.9228     153.723246       0.02362
  29     323.5       46.8272        8.0606      192.4286      200.4891     153.661953       0.02176
  28     347.3       46.4569        8.6158      191.4464      200.0622     153.605272       0.02012
  27     371.1       46.0902        9.1598      190.4836      199.6433     153.553109       0.01852
  26     394.9       45.7175        9.7072      189.5132      199.2204     153.502990       0.01779
  25     418.6       45.3449       10.2491      188.5503      198.7994     153.454555       0.01719
  24     442.4       44.9720       10.7864      187.5927      198.3791     153.407127       0.01683
  23     466.2       44.5975       11.3209      186.6371      197.9580     153.360473       0.01656
  22     489.9       44.2267       11.8453      185.6961      197.5415     153.314743       0.01623
  21     513.7       43.8534       12.3688      184.7529      197.1217     153.268304       0.01648
  20     537.5       43.4832       12.8833      183.8209      196.7042     153.220966       0.01680
  19     561.3       43.1158       13.3899      182.8981      196.2880     153.172129       0.01734
  18     585.0       42.7432       13.8995      181.9641      195.8637     153.120482       0.01833
  17     608.8       42.3741       14.4002      181.0409      195.4411     153.066989       0.01899
  16     632.6       42.0085       14.8922      180.1276      195.0198     153.011286       0.01977
  15     656.4       41.6391       15.3856      179.2047      194.5903     152.951265       0.02130
  14     680.1       41.2733       15.8706      178.2893      194.1599     152.886598       0.02295
  13     703.9       40.9114       16.3474      177.3803      193.7277     152.816259       0.02497
  12     727.7       40.5481       16.8230      176.4629      193.2859     152.737835       0.02784
  11     751.5       40.1838       17.2975      175.5353      192.8327     152.648902       0.03157
  10     775.2       39.8233       17.7647      174.6074      192.3722     152.548844       0.03552
   9     799.0       39.4670       18.2248      173.6783      191.9031     152.436107       0.04002
   8     822.8       32.8774       25.9335      159.2572      185.1907     152.313292       0.04359
   7     846.6       26.3345       32.5055      146.0207      178.5262     152.191721       0.04315
   6     870.4       19.8368       38.0123      133.8977      171.9100     152.073225       0.04206
   5     894.1       13.3797       42.5574      122.7811      165.3386     151.958899       0.04058
   4     917.9       13.0186       42.7573      122.1051      164.8624     151.843826       0.04085
   3     941.7       12.6571       42.9533      121.4280      164.3813     151.724164       0.04248
   2     965.5       12.2980       43.1441      120.7549      163.8989     151.600909       0.04375
   1     989.2       11.9412       43.3298      120.0859      163.4157     151.474464       0.04487
   0    1013.0       11.5868       43.5106      119.4212      162.9319     151.345067       0.04594



 Wavenumbers: 22650. - 29000. cm-1, ATM      1
 LEVEL PRESSURE   UPWARD FLUX   DIFDOWN FLUX  DIRDOWN FLUX  DOWNWARD FLUX   NET FLUX    HEATING RATE
          mb          W/m2          W/m2          W/m2        W/m2          W/m2       degree/day
  60   .000300       28.5714        0.0000       80.0317       80.0317      51.460345       0.00000
  59    0.1000       28.5697        0.0034       80.0267       80.0301      51.460345       0.00000
  58    0.1403       28.5690        0.0047       80.0247       80.0294      51.460345      -0.00000
  57    0.1968       28.5681        0.0066       80.0218       80.0284      51.460345       0.00000
  56    0.2760       28.5668        0.0093       80.0178       80.0271      51.460345      -0.00000
  55    0.3871       28.5649        0.0131       80.0122       80.0253      51.460345       0.00000
  54    0.5430       28.5623        0.0183       80.0043       80.0227      51.460345       0.00000
  53    0.7617       28.5587        0.0257       79.9933       80.0190      51.460345       0.00000
  52     1.069       28.5536        0.0361       79.9778       80.0139      51.460345      -0.00000
  51     1.499       28.5465        0.0506       79.9562       80.0068      51.460345       0.00000
  50     2.102       28.5366        0.0706       79.9263       79.9969      51.460345      -0.00000
  49     2.949       28.5225        0.0990       79.8839       79.9829      51.460345       0.00000
  48     4.137       28.5029        0.1388       79.8244       79.9632      51.460345      -0.00000
  47     5.803       28.4753        0.1945       79.7412       79.9357      51.460345       0.00000
  46     8.139       28.4368        0.2722       79.6249       79.8972      51.460345       0.00000
  45     11.42       28.3828        0.3809       79.4623       79.8432      51.460345       0.00000
  44     16.01       28.3073        0.5324       79.2352       79.7676      51.460345       0.00000
  43     22.46       28.2013        0.7438       78.9179       79.6617      51.460345      -0.00000
  42     31.51       28.0528        1.0381       78.4751       79.5132      51.460345      -0.00000
  41     44.20       27.8443        1.4473       77.8573       79.3046      51.460345       0.00000
  40     62.00       27.5535        2.0100       77.0038       79.0139      51.460345       0.00000
  39     85.78       27.1656        2.7467       75.8793       78.6259      51.460345       0.00000
  38     109.5       26.7718        3.4782       74.7539       78.2322      51.460345      -0.00000
  37     133.1       26.3931        4.1665       73.6869       77.8534      51.460345       0.00000
  36     156.8       26.0249        4.8215       72.6637       77.4852      51.460345       0.00000
  35     180.6       25.6338        5.5020       71.5922       77.0942      51.460345       0.00000
  34     202.8       25.2576        6.1422       70.5757       76.7179      51.460345      -0.00000
  33     228.4       24.8741        6.7803       69.5542       76.3344      51.460345       0.00000
  32     252.2       24.4897        7.4052       68.5449       75.9501      51.460345      -0.00000
  31     276.0       24.1101        8.0085       67.5619       75.5704      51.460345       0.00000
  30     299.8       23.7275        8.6023       66.5855       75.1879      51.460345       0.00000
  29     323.5       23.3443        9.1834       65.6212       74.8046      51.460345       0.00000
  28     347.3       22.9645        9.7457       64.6791       74.4248      51.460345       0.00000
  27     371.1       22.5895       10.2877       63.7621       74.0499      51.460345       0.00000
  26     394.9       22.2094       10.8243       62.8455       73.6697      51.460345      -0.00000
  25     418.6       21.8301       11.3465       61.9439       73.2904      51.460345       0.00000
  24     442.4       21.4511       11.8556       61.0558       72.9115      51.460345       0.00000
  23     466.2       21.0711       12.3534       60.1781       72.5315      51.460345       0.00000
  22     489.9       20.6954       12.8334       59.3223       72.1557      51.460345      -0.00000
  21     513.7       20.3173       13.3041       58.4735       71.7776      51.460345       0.00000
  20     537.5       19.9426       13.7588       57.6441       71.4029      51.460345      -0.00000
  19     561.3       19.5706       14.1985       56.8325       71.0309      51.460345       0.00000
  18     585.0       19.1933       14.6329       56.0207       70.6536      51.460345      -0.00000
  17     608.8       18.8194       15.0519       55.2278       70.2798      51.460345       0.00000
  16     632.6       18.4489       15.4561       54.4531       69.9093      51.460345       0.00000
  15     656.4       18.0741       15.8540       53.6804       69.5345      51.460345      -0.00000
  14     680.1       17.7024       16.2378       52.9249       69.1627      51.460345      -0.00000
  13     703.9       17.3336       16.6080       52.1859       68.7939      51.460345       0.00000
  12     727.7       16.9621       16.9705       51.4520       68.4224      51.460345       0.00000
  11     751.5       16.5879       17.3251       50.7232       68.0483      51.460345      -0.00000
  10     775.2       16.2155       17.6677       50.0082       67.6759      51.460345       0.00000
   9     799.0       15.8449       17.9986       49.3067       67.3053      51.460345       0.00000
   8     822.8       13.3953       20.0396       44.8160       64.8557      51.460338       0.00000
   7     846.6       10.9613       21.6865       40.7350       62.4216      51.460331       0.00000
   6     870.4        8.5434       22.9704       37.0334       60.0038      51.460325       0.00000
   5     894.1        6.1402       23.9318       33.6687       57.6005      51.460319       0.00000
   4     917.9        5.7752       24.0405       33.1950       57.2355      51.460319       0.00000
   3     941.7        5.4093       24.1425       32.7271       56.8697      51.460319      -0.00000
   2     965.5        5.0455       24.2373       32.2685       56.5058      51.460319       0.00000
   1     989.2        4.6836       24.3250       31.8190       56.1439      51.460319       0.00000
   0    1013.0        4.3236       24.4057       31.3782       55.7839      51.460319       0.00000



 Wavenumbers: 29000. - 38000. cm-1, ATM      1
 LEVEL PRESSURE   UPWARD FLUX   DIFDOWN FLUX  DIRDOWN FLUX  DOWNWARD FLUX   NET FLUX    HEATING RATE
          mb          W/m2          W/m2          W/m2        W/m2          W/m2       degree/day
  60   .000300        6.0743        0.0000       28.2225       28.2225      22.148203       0.00000
  59    0.1000        6.0725        0.0028       28.1859       28.1886      22.116184       2.71024
  58    0.1403        6.0718        0.0039       28.1585       28.1624      22.090624       5.35246
  57    0.1968        6.0709        0.0054       28.1101       28.1156      22.044692       6.86061
  56    0.2760        6.0697        0.0075       28.0271       28.0347      21.964970       8.49484
  55    0.3871        6.0682        0.0105       27.8913       27.9019      21.833686       9.97229
  54    0.5430        6.0663        0.0145       27.6738       27.6883      21.622076      11.45481
  53    0.7617        6.0641        0.0200       27.3185       27.3385      21.274451      13.41410
  52     1.069        6.0618        0.0272       26.7574       26.7845      20.722745      15.17576
  51     1.499        6.0601        0.0363       25.9466       25.9829      19.922865      15.68743
  50     2.102        6.0603        0.0478       24.8886       24.9364      18.876079      14.63549
  49     2.949        6.0652        0.0628       23.6539       23.7167      17.651500      12.20695
  48     4.137        6.0780        0.0824       22.3800       22.4624      16.384375       9.00425
  47     5.803        6.1007        0.1084       21.1533       21.2617      15.160986       6.19747
  46     8.139        6.1328        0.1433       20.0304       20.1738      14.040947       4.04510
  45     11.42        6.1727        0.1906       19.0179       19.2085      13.035830       2.58781
  44     16.01        6.2202        0.2542       18.0801       18.3343      12.114077       1.69189
  43     22.46        6.2763        0.3402       17.1858       17.5260      11.249774       1.13097
  42     31.51        6.3336        0.4571       16.3448       16.8019      10.468349       0.72896
  41     44.20        6.3737        0.6174       15.5663       16.1837       9.809984       0.43784
  40     62.00        6.3847        0.8346       14.8065       15.6411       9.256418       0.26245
  39     85.78        6.3346        1.1171       14.0925       15.2096       8.875005       0.13539
  38     109.5        6.2461        1.3953       13.5167       14.9120       8.665916       0.07422
  37     133.1        6.1531        1.6506       13.0134       14.6639       8.510865       0.05568
  36     156.8        6.0590        1.8871       12.5564       14.4435       8.384500       0.04481
  35     180.6        5.9531        2.1282       12.1053       14.2336       8.280497       0.03692
  34     202.8        5.8446        2.3513       11.7016       14.0528       8.208244       0.02743
  33     228.4        5.7311        2.5688       11.3112       13.8800       8.148894       0.01958
  32     252.2        5.6158        2.7770       10.9372       13.7142       8.098400       0.01792
  31     276.0        5.5002        2.9735       10.5839       13.5574       8.057192       0.01463
  30     299.8        5.3824        3.1626       10.2424       13.4050       8.022549       0.01230
  29     323.5        5.2641        3.3428        9.9126       13.2554       7.991313       0.01109
  28     347.3        5.1466        3.5125        9.5973       13.1098       7.963182       0.00999
  27     371.1        5.0304        3.6719        9.2967       12.9685       7.938130       0.00889
  26     394.9        4.9124        3.8253        9.0022       12.8274       7.915033       0.00820
  25     418.6        4.7946        3.9702        8.7182       12.6884       7.893742       0.00756
  24     442.4        4.6770        4.1073        8.4437       12.5510       7.874055       0.00699
  23     466.2        4.5589        4.2373        8.1775       12.4148       7.855914       0.00644
  22     489.9        4.4422        4.3587        7.9229       12.2815       7.839389       0.00587
  21     513.7        4.3247        4.4738        7.6749       12.1486       7.823935       0.00549
  20     537.5        4.2083        4.5810        7.4369       12.0179       7.809548       0.00511
  19     561.3        4.0929        4.6810        7.2080       11.8890       7.796107       0.00477
  18     585.0        3.9759        4.7761        6.9831       11.7591       7.783211       0.00458
  17     608.8        3.8601        4.8640        6.7672       11.6312       7.771084       0.00430
  16     632.6        3.7454        4.9452        6.5598       11.5051       7.759662       0.00405
  15     656.4        3.6294        5.0216        6.3565       11.3781       7.748676       0.00390
  14     680.1        3.5145        5.0917        6.1611       11.2529       7.738305       0.00368
  13     703.9        3.4006        5.1560        5.9732       11.1291       7.728503       0.00348
  12     727.7        3.2860        5.2154        5.7897       11.0051       7.719096       0.00334
  11     751.5        3.1706        5.2701        5.6105       10.8807       7.710075       0.00320
  10     775.2        3.0558        5.3196        5.4377       10.7574       7.701529       0.00303
   9     799.0        2.9417        5.3641        5.2710       10.6351       7.693428       0.00288
   8     822.8        2.5226        5.4993        4.7091       10.2084       7.685761       0.00272
   7     846.6        2.1059        5.5775        4.2071        9.7846       7.678724       0.00250
   6     870.4        1.6919        5.6045        3.7598        9.3642       7.672323       0.00227
   5     894.1        1.2803        5.5868        3.3600        8.9468       7.666525       0.00206
   4     917.9        1.1669        5.5715        3.2565        8.8280       7.661097       0.00193
   3     941.7        1.0533        5.5532        3.1560        8.7092       7.655891       0.00185
   2     965.5        0.9403        5.5322        3.0591        8.5912       7.650940       0.00176
   1     989.2        0.8280        5.5086        2.9656        8.4742       7.646228       0.00167
   0    1013.0        0.7163        5.4825        2.8755        8.3580       7.641745       0.00159



 Wavenumbers: 38000. - 50000. cm-1, ATM      1
 LEVEL PRESSURE   UPWARD FLUX   DIFDOWN FLUX  DIRDOWN FLUX  DOWNWARD FLUX   NET FLUX    HEATING RATE
          mb          W/m2          W/m2          W/m2        W/m2          W/m2       degree/day
  60   .000300        0.0069        0.0000        1.7407        1.7407       1.733864       0.00000
  59    0.1000        0.0063        0.0006        1.7198        1.7204       1.714069       1.67562
  58    0.1403        0.0061        0.0008        1.7047        1.7056       1.699408       3.07012
  57    0.1968        0.0059        0.0012        1.6784        1.6796       1.673683       3.84232
  56    0.2760        0.0056        0.0016        1.6341        1.6357       1.630132       4.64062
  55    0.3871        0.0051        0.0021        1.5634        1.5655       1.560405       5.29648
  54    0.5430        0.0046        0.0028        1.4543        1.4571       1.452495       5.84133
  53    0.7617        0.0039        0.0034        1.2861        1.2895       1.285598       6.44019
  52     1.069        0.0031        0.0037        1.0457        1.0495       1.046342       6.58121
  51     1.499        0.0024        0.0037        0.7523        0.7559       0.753565       5.74202
  50     2.102        0.0017        0.0031        0.4664        0.4695       0.467843       3.99478
  49     2.949        0.0012        0.0024        0.2581        0.2604       0.259286       2.07895
  48     4.137        0.0008        0.0017        0.1381        0.1398       0.139011       0.85468
  47     5.803        0.0005        0.0013        0.0728        0.0741       0.073572       0.33150
  46     8.139        0.0003        0.0009        0.0388        0.0397       0.039349       0.12360
  45     11.42        0.0002        0.0006        0.0198        0.0204       0.020194       0.04932
  44     16.01        0.0001        0.0004        0.0090        0.0093       0.009236       0.02011
  43     22.46        0.0000        0.0002        0.0034        0.0036       0.003591       0.00739
  42     31.51        0.0000        0.0001        0.0011        0.0012       0.001179       0.00225
  41     44.20        0.0000        0.0000        0.0003        0.0003       0.000327       0.00057
  40     62.00        0.0000        0.0000        0.0001        0.0001       0.000070       0.00012
  39     85.78        0.0000        0.0000        0.0000        0.0000       0.000012       0.00002
  38     109.5        0.0000        0.0000        0.0000        0.0000       0.000002       0.00000
  37     133.1        0.0000        0.0000        0.0000        0.0000       0.000000       0.00000
  36     156.8        0.0000        0.0000        0.0000        0.0000       0.000000       0.00000
  35     180.6        0.0000        0.0000        0.0000        0.0000       0.000000       0.00000
  34     202.8        0.0000        0.0000        0.0000        0.0000       0.000000       0.00000
  33     228.4        0.0000        0.0000        0.0000        0.0000       0.000000       0.00000
  32     252.2        0.0000        0.0000        0.0000        0.0000       0.000000       0.00000
  31     276.0        0.0000        0.0000        0.0000        0.0000       0.000000       0.00000
  30     299.8        0.0000        0.0000        0.0000        0.0000       0.000000       0.00000
  29     323.5        0.0000        0.0000        0.0000        0.0000       0.000000       0.00000
  28     347.3        0.0000        0.0000        0.0000        0.0000       0.000000       0.00000
  27     371.1        0.0000        0.0000        0.0000        0.0000       0.000000       0.00000
  26     394.9        0.0000        0.0000        0.0000        0.0000       0.000000       0.00000
  25     418.6        0.0000        0.0000        0.0000        0.0000       0.000000       0.00000
  24     442.4        0.0000        0.0000        0.0000        0.0000       0.000000       0.00000
  23     466.2        0.0000        0.0000        0.0000        0.0000       0.000000       0.00000
  22     489.9        0.0000        0.0000        0.0000        0.0000       0.000000       0.00000
  21     513.7        0.0000        0.0000        0.0000        0.0000       0.000000       0.00000
  20     537.5        0.0000        0.0000        0.0000        0.0000       0.000000       0.00000
  19     561.3        0.0000        0.0000        0.0000        0.0000       0.000000       0.00000
  18     585.0        0.0000        0.0000        0.0000        0.0000       0.000000       0.00000
  17     608.8        0.0000        0.0000        0.0000        0.0000       0.000000       0.00000
  16     632.6        0.0000        0.0000        0.0000        0.0000       0.000000       0.00000
  15     656.4        0.0000        0.0000        0.0000        0.0000       0.000000       0.00000
  14     680.1        0.0000        0.0000        0.0000        0.0000       0.000000       0.00000
  13     703.9        0.0000        0.0000        0.0000        0.0000       0.000000       0.00000
  12     727.7        0.0000        0.0000        0.0000        0.0000       0.000000       0.00000
  11     751.5        0.0000        0.0000        0.0000        0.0000       0.000000       0.00000
  10     775.2        0.0000        0.0000        0.0000        0.0000       0.000000       0.00000
   9     799.0        0.0000        0.0000        0.0000        0.0000       0.000000       0.00000
   8     822.8        0.0000        0.0000        0.0000        0.0000       0.000000       0.00000
   7     846.6        0.0000        0.0000        0.0000        0.0000       0.000000       0.00000
   6     870.4        0.0000        0.0000        0.0000        0.0000       0.000000       0.00000
   5     894.1        0.0000        0.0000        0.0000        0.0000       0.000000       0.00000
   4     917.9        0.0000        0.0000        0.0000        0.0000       0.000000       0.00000
   3     941.7        0.0000        0.0000        0.0000        0.0000       0.000000       0.00000
   2     965.5        0.0000        0.0000        0.0000        0.0000       0.000000       0.00000
   1     989.2        0.0000        0.0000        0.0000        0.0000       0.000000       0.00000
   0    1013.0        0.0000        0.0000        0.0000        0.0000       0.000000       0.00000



 Wavenumbers:   820. -  2600. cm-1, ATM      1
 LEVEL PRESSURE   UPWARD FLUX   DIFDOWN FLUX  DIRDOWN FLUX  DOWNWARD FLUX   NET FLUX    HEATING RATE
          mb          W/m2          W/m2          W/m2        W/m2          W/m2       degree/day
  60   .000300        0.3277        0.0000        8.1430        8.1430       7.815267       0.00000
  59    0.1000        0.3277        0.0000        8.1331        8.1331       7.805380       0.83685
  58    0.1403        0.3277        0.0000        8.1309        8.1309       7.803242       0.44785
  57    0.1968        0.3277        0.0000        8.1281        8.1281       7.800402       0.42420
  56    0.2760        0.3277        0.0000        8.1245        8.1245       7.796835       0.38010
  55    0.3871        0.3277        0.0000        8.1201        8.1201       7.792374       0.33885
  54    0.5430        0.3277        0.0000        8.1143        8.1143       7.786618       0.31157
  53    0.7617        0.3277        0.0000        8.1063        8.1063       7.778632       0.30815
  52     1.069        0.3277        0.0000        8.0951        8.0951       7.767384       0.30940
  51     1.499        0.3277        0.0000        8.0799        8.0799       7.752195       0.29790
  50     2.102        0.3277        0.0000        8.0595        8.0595       7.731784       0.28537
  49     2.949        0.3277        0.0000        8.0314        8.0314       7.703645       0.28050
  48     4.137        0.3277        0.0000        7.9935        7.9935       7.665798       0.26894
  47     5.803        0.3277        0.0000        7.9444        7.9444       7.616676       0.24884
  46     8.139        0.3277        0.0000        7.8811        7.8811       7.553398       0.22853
  45     11.42        0.3277        0.0000        7.8004        7.8004       7.472672       0.20784
  44     16.01        0.3277        0.0000        7.7070        7.7070       7.379315       0.17136
  43     22.46        0.3277        0.0000        7.6181        7.6181       7.290339       0.11643
  42     31.51        0.3278        0.0000        7.5468        7.5468       7.219058       0.06650
  41     44.20        0.3278        0.0000        7.4816        7.4816       7.153855       0.04336
  40     62.00        0.3278        0.0000        7.3998        7.3998       7.072019       0.03880
  39     85.78        0.3279        0.0000        7.2958        7.2958       6.967956       0.03694
  38     109.5        0.3279        0.0000        7.1946        7.1946       6.866735       0.03593
  37     133.1        0.3280        0.0000        7.1003        7.1003       6.772326       0.03390
  36     156.8        0.3280        0.0000        7.0126        7.0126       6.684641       0.03109
  35     180.6        0.3281        0.0000        6.9166        6.9166       6.588536       0.03412
  34     202.8        0.3281        0.0000        6.8041        6.8042       6.476040       0.04271
  33     228.4        0.3282        0.0000        6.6630        6.6630       6.334799       0.04660
  32     252.2        0.3283        0.0000        6.4917        6.4917       6.163347       0.06086
  31     276.0        0.3285        0.0000        6.3090        6.3091       5.980586       0.06487
  30     299.8        0.3287        0.0000        6.1153        6.1153       5.786611       0.06885
  29     323.5        0.3290        0.0000        5.9197        5.9197       5.590716       0.06953
  28     347.3        0.3294        0.0000        5.7036        5.7036       5.374197       0.07686
  27     371.1        0.3299        0.0000        5.4648        5.4649       5.134985       0.08491
  26     394.9        0.3305        0.0000        5.2059        5.2060       4.875518       0.09210
  25     418.6        0.3311        0.0000        4.9521        4.9521       4.620949       0.09036
  24     442.4        0.3320        0.0000        4.7233        4.7233       4.391392       0.08148
  23     466.2        0.3329        0.0000        4.5370        4.5370       4.204159       0.06646
  22     489.9        0.3339        0.0000        4.3924        4.3925       4.058579       0.05167
  21     513.7        0.3351        0.0000        4.2764        4.2764       3.941284       0.04163
  20     537.5        0.3366        0.0000        4.1775        4.1776       3.840941       0.03562
  19     561.3        0.3384        0.0000        4.0839        4.0840       3.745631       0.03383
  18     585.0        0.3404        0.0000        3.9882        3.9883       3.647882       0.03470
  17     608.8        0.3428        0.0000        3.8907        3.8907       3.547973       0.03546
  16     632.6        0.3455        0.0000        3.7911        3.7912       3.445657       0.03632
  15     656.4        0.3488        0.0000        3.6867        3.6868       3.337966       0.03823
  14     680.1        0.3528        0.0000        3.5795        3.5795       3.226761       0.03947
  13     703.9        0.3575        0.0000        3.4709        3.4710       3.113442       0.04022
  12     727.7        0.3635        0.0000        3.3598        3.3599       2.996378       0.04155
  11     751.5        0.3712        0.0000        3.2443        3.2443       2.873100       0.04376
  10     775.2        0.3813        0.0000        3.1256        3.1256       2.744328       0.04571
   9     799.0        0.3945        0.0000        3.0033        3.0033       2.608784       0.04811
   8     822.8        0.3050        0.1222        2.6536        2.7758       2.470814       0.04897
   7     846.6        0.2183        0.2186        2.3447        2.5633       2.344911       0.04469
   6     870.4        0.1337        0.2917        2.0717        2.3634       2.229786       0.04086
   5     894.1        0.0501        0.3456        1.8285        2.1741       2.124021       0.03754
   4     917.9        0.0522        0.3273        1.7471        2.0744       2.022250       0.03612
   3     941.7        0.0546        0.3091        1.6651        1.9742       1.919617       0.03643
   2     965.5        0.0574        0.2911        1.5827        1.8738       1.816344       0.03666
   1     989.2        0.0608        0.2733        1.5002        1.7735       1.712649       0.03680
   0    1013.0        0.0650        0.2559        1.4180        1.6739       1.608972       0.03681

  Modules and versions used in this calculation:

       rrtmg_sw.1col.f90:  $Revision$                    rrtmg_sw_init.f90:  $Revision$        
     rrtmgsw_cldprop.f90:  $Revision$                  rrtmgsw_cldprmc.f90:  NOT USED          
     rrtmg_sw_reftra.f90:  $Revision$                  rrtmg_sw_spcvrt.f90:  NOT USED          
     rrtmg_sw_spcvmc.f90:  NOT USED                    rrtmgsw_setcoef.f90:  NOT USED          
     rrtmg_sw_taumol.f90:  $Revision$                  rrtmg_sw_vrtqdr.f90:  NOT USED          
                rrtatm.f:  NOT USED                             util_xxx.f:  NOT USED          
                 extra.f:  NOT USED                       rrtmg_sw_k_g.f90:  $Revision$        

