

 Wavenumbers:   820. - 50000. cm-1, ATM      1
 LEVEL PRESSURE   UPWARD FLUX   DIFDOWN FLUX  DIRDOWN FLUX  DOWNWARD FLUX   NET FLUX    HEATING RATE
          mb          W/m2          W/m2          W/m2        W/m2          W/m2       degree/day
  60   .000300      114.4790        0.0000      837.8224      837.8224     723.343346       0.00000
  59    0.1000      114.4727        0.0100      837.7137      837.7236     723.250933       7.82234
  58    0.1403      114.4703        0.0140      837.6563      837.6703     723.200000      10.66583
  57    0.1968      114.4670        0.0196      837.5614      837.5810     723.113946      12.85350
  56    0.2760      114.4627        0.0274      837.4070      837.4344     722.971720      15.15481
  55    0.3871      114.4569        0.0383      837.1641      837.2023     722.745436      17.18852
  54    0.5430      114.4493        0.0532      836.7876      836.8409     722.391598      19.15392
  53    0.7617      114.4396        0.0737      836.1942      836.2679     721.828244      21.73855
  52     1.069      114.4279        0.1017      835.2926      835.3943     720.966390      23.70703
  51     1.499      114.4149        0.1391      834.0471      834.1862     719.771305      23.43829
  50     2.102      114.4030        0.1893      832.4995      832.6888     718.285756      20.76999
  49     2.949      114.3970        0.2592      830.7483      831.0075     716.610480      16.69961
  48     4.137      114.4028        0.3562      828.8944      829.2506     714.847869      12.52520
  47     5.803      114.4214        0.4907      826.9459      827.4366     713.015193       9.28400
  46     8.139      114.4460        0.6775      824.8978      825.5754     711.129322       6.81095
  45     11.42      114.4631        0.9372      822.7006      823.6377     709.174593       5.03272
  44     16.01      114.4593        1.2971      820.2525      821.5496     707.090266       3.82581
  43     22.46      114.4166        1.7970      817.4463      819.2433     704.826737       2.96191
  42     31.51      114.2888        2.4909      814.2518      816.7427     702.453892       2.21354
  41     44.20      113.9941        3.4558      810.6480      814.1037     700.109616       1.55903
  40     62.00      113.4595        4.7840      806.4553      811.2393     697.779846       1.10458
  39     85.78      112.5832        6.5309      801.7674      808.2983     695.715149       0.73288
  38     109.5      111.6051        8.2758      797.4817      805.7575     694.152361       0.55473
  37     133.1      110.6411        9.9214      793.5510      803.4723     692.831216       0.47444
  36     156.8      109.6916       11.4910      789.8548      801.3458     691.654174       0.41738
  35     180.6      108.6660       13.1282      786.0084      799.1366     690.470643       0.42018
  34     202.8      107.6622       14.6759      782.2124      796.8882     689.226083       0.47253
  33     228.4      106.6306       16.2245      778.0467      794.2712     687.640617       0.52310
  32     252.2      105.5921       17.7474      773.4741      791.2215     685.629396       0.71390
  31     276.0      104.5616       19.2238      768.4389      787.6627     683.101070       0.89745
  30     299.8      103.5205       20.6833      762.7642      783.4475     679.927064       1.12664
  29     323.5      102.4770       22.1173      756.6288      778.7460     676.269061       1.29844
  28     347.3      101.4434       23.5107      750.2254      773.7361     672.292724       1.41144
  27     371.1      100.4238       24.8600      743.7251      768.5850     668.161221       1.46651
  26     394.9       99.3916       26.2013      736.8957      763.0970     663.705462       1.58161
  25     418.6       98.3643       27.5128      729.8721      757.3850     659.020649       1.66292
  24     442.4       97.3411       28.7971      722.6783      751.4754     654.134288       1.73446
  23     466.2       96.3189       30.0589      715.4381      745.4970     649.178145       1.75923
  22     489.9       95.3125       31.2816      708.2772      739.5587     644.246274       1.75061
  21     513.7       94.3058       32.4866      701.0441      733.5307     639.224873       1.78239
  20     537.5       93.3155       33.6560      693.8325      727.4885     634.172961       1.79322
  19     561.3       92.3413       34.7926      686.6319      721.4245     629.083187       1.80666
  18     585.0       91.3628       35.9213      679.3701      715.2914     623.928571       1.82968
  17     608.8       90.4039       37.0158      672.2525      709.2683     618.864378       1.79758
  16     632.6       89.4658       38.0773      665.2624      703.3397     613.873860       1.77143
  15     656.4       88.5327       39.1278      658.1915      697.3193     608.786559       1.80578
  14     680.1       87.6280       40.1462      651.1209      691.2671     603.639160       1.82711
  13     703.9       86.7555       41.1333      644.0582      685.1915     598.436047       1.84689
  12     727.7       85.9088       42.1043      636.8758      678.9801     593.071325       1.90426
  11     751.5       85.1002       43.0582      629.4911      672.5493     587.449096       1.99566
  10     775.2       84.3532       43.9833      621.9804      665.9637     581.610407       2.07249
   9     799.0       83.6868       44.8798      614.3441      659.2239     575.537112       2.15577
   8     822.8       71.3743       58.2439      582.4779      640.7217     569.347389       2.19710
   7     846.6       59.1603       70.3653      552.4440      622.8094     563.649110       2.02265
   6     870.4       47.0217       81.2252      524.1425      605.3677     558.345941       1.88241
   5     894.1       34.9416       90.9156      497.4506      588.3662     553.424618       1.74687
   4     917.9       34.0301       91.0134      491.7362      582.7496     548.719500       1.67012
   3     941.7       33.1311       91.1113      486.1324      577.2437     544.112604       1.63526
   2     965.5       32.2543       91.2061      480.6692      571.8754     539.621027       1.59432
   1     989.2       31.4034       91.2969      475.3422      566.6391     535.235747       1.55627
   0    1013.0       30.5835       91.3826      470.1398      561.5224     530.938886       1.52553



 Wavenumbers:  2600. -  3250. cm-1, ATM      1
 LEVEL PRESSURE   UPWARD FLUX   DIFDOWN FLUX  DIRDOWN FLUX  DOWNWARD FLUX   NET FLUX    HEATING RATE
          mb          W/m2          W/m2          W/m2        W/m2          W/m2       degree/day
  60   .000300        0.2729        0.0000        7.3841        7.3841       7.111218       0.00000
  59    0.1000        0.2729        0.0000        7.3840        7.3840       7.111145       0.00613
  58    0.1403        0.2729        0.0000        7.3840        7.3840       7.111116       0.00614
  57    0.1968        0.2729        0.0000        7.3839        7.3839       7.111075       0.00616
  56    0.2760        0.2729        0.0000        7.3839        7.3839       7.111017       0.00613
  55    0.3871        0.2729        0.0000        7.3838        7.3838       7.110933       0.00641
  54    0.5430        0.2729        0.0000        7.3837        7.3837       7.110807       0.00678
  53    0.7617        0.2729        0.0000        7.3835        7.3835       7.110610       0.00761
  52     1.069        0.2729        0.0000        7.3831        7.3831       7.110280       0.00908
  51     1.499        0.2729        0.0000        7.3825        7.3825       7.109672       0.01193
  50     2.102        0.2729        0.0000        7.3814        7.3814       7.108583       0.01522
  49     2.949        0.2729        0.0000        7.3795        7.3795       7.106697       0.01880
  48     4.137        0.2729        0.0000        7.3765        7.3765       7.103683       0.02142
  47     5.803        0.2729        0.0000        7.3721        7.3721       7.099253       0.02245
  46     8.139        0.2729        0.0000        7.3661        7.3661       7.093246       0.02169
  45     11.42        0.2728        0.0000        7.3586        7.3586       7.085740       0.01932
  44     16.01        0.2728        0.0000        7.3500        7.3500       7.077166       0.01574
  43     22.46        0.2728        0.0000        7.3407        7.3407       7.067853       0.01219
  42     31.51        0.2728        0.0000        7.3297        7.3297       7.056894       0.01022
  41     44.20        0.2728        0.0000        7.3134        7.3134       7.040553       0.01087
  40     62.00        0.2729        0.0000        7.2860        7.2860       7.013167       0.01298
  39     85.78        0.2729        0.0000        7.2438        7.2439       6.971011       0.01496
  38     109.5        0.2729        0.0000        7.1969        7.1969       6.924062       0.01667
  37     133.1        0.2729        0.0000        7.1517        7.1518       6.878882       0.01622
  36     156.8        0.2729        0.0001        7.1092        7.1093       6.836351       0.01508
  35     180.6        0.2730        0.0001        7.0662        7.0663       6.793287       0.01529
  34     202.8        0.2730        0.0001        7.0262        7.0262       6.753203       0.01522
  33     228.4        0.2731        0.0001        6.9846        6.9847       6.711599       0.01373
  32     252.2        0.2732        0.0001        6.9407        6.9408       6.667547       0.01564
  31     276.0        0.2734        0.0001        6.8941        6.8942       6.620852       0.01657
  30     299.8        0.2736        0.0001        6.8424        6.8426       6.568973       0.01841
  29     323.5        0.2738        0.0001        6.7849        6.7850       6.511198       0.02051
  28     347.3        0.2742        0.0001        6.7206        6.7207       6.446558       0.02294
  27     371.1        0.2746        0.0001        6.6496        6.6497       6.375123       0.02536
  26     394.9        0.2751        0.0001        6.5676        6.5677       6.292638       0.02928
  25     418.6        0.2757        0.0001        6.4741        6.4743       6.198584       0.03339
  24     442.4        0.2764        0.0001        6.3671        6.3673       6.090885       0.03823
  23     466.2        0.2772        0.0002        6.2486        6.2487       5.971452       0.04239
  22     489.9        0.2782        0.0002        6.1205        6.1206       5.842386       0.04581
  21     513.7        0.2794        0.0002        5.9812        5.9813       5.701923       0.04986
  20     537.5        0.2808        0.0002        5.8338        5.8340       5.553169       0.05280
  19     561.3        0.2825        0.0002        5.6819        5.6820       5.399587       0.05452
  18     585.0        0.2844        0.0002        5.5274        5.5276       5.243224       0.05550
  17     608.8        0.2866        0.0002        5.3761        5.3762       5.089672       0.05450
  16     632.6        0.2891        0.0002        5.2281        5.2283       4.939198       0.05341
  15     656.4        0.2920        0.0002        5.0791        5.0793       4.787227       0.05394
  14     680.1        0.2955        0.0002        4.9299        4.9300       4.634512       0.05421
  13     703.9        0.2997        0.0002        4.7798        4.7799       4.480266       0.05475
  12     727.7        0.3047        0.0002        4.6253        4.6254       4.320703       0.05664
  11     751.5        0.3111        0.0002        4.4633        4.4634       4.152368       0.05975
  10     775.2        0.3190        0.0002        4.2949        4.2950       3.976003       0.06260
   9     799.0        0.3292        0.0002        4.1205        4.1207       3.791536       0.06548
   8     822.8        0.2645        0.0821        3.7858        3.8679       3.603343       0.06680
   7     846.6        0.2016        0.1516        3.4789        3.6305       3.428879       0.06193
   6     870.4        0.1400        0.2101        3.1992        3.4093       3.269303       0.05664
   5     894.1        0.0789        0.2582        2.9444        3.2025       3.123589       0.05172
   4     917.9        0.0812        0.2458        2.8227        3.0684       2.987209       0.04841
   3     941.7        0.0839        0.2341        2.7060        2.9402       2.856312       0.04646
   2     965.5        0.0870        0.2232        2.5948        2.8180       2.731059       0.04446
   1     989.2        0.0906        0.2130        2.4890        2.7020       2.611339       0.04249
   0    1013.0        0.0950        0.2032        2.3876        2.5909       2.495907       0.04098



 Wavenumbers:  3250. -  4000. cm-1, ATM      1
 LEVEL PRESSURE   UPWARD FLUX   DIFDOWN FLUX  DIRDOWN FLUX  DOWNWARD FLUX   NET FLUX    HEATING RATE
          mb          W/m2          W/m2          W/m2        W/m2          W/m2       degree/day
  60   .000300        0.0025        0.0000       12.4485       12.4485      12.445998       0.00000
  59    0.1000        0.0025        0.0000       12.4290       12.4290      12.426496       1.65079
  58    0.1403        0.0025        0.0000       12.4252       12.4252      12.422781       0.77776
  57    0.1968        0.0025        0.0000       12.4208       12.4208      12.418309       0.66803
  56    0.2760        0.0025        0.0000       12.4156       12.4156      12.413146       0.55013
  55    0.3871        0.0025        0.0000       12.4096       12.4096      12.407113       0.45825
  54    0.5430        0.0025        0.0000       12.4022       12.4022      12.399785       0.39669
  53    0.7617        0.0025        0.0000       12.3928       12.3928      12.390325       0.36506
  52     1.069        0.0025        0.0000       12.3807       12.3807      12.378284       0.33119
  51     1.499        0.0025        0.0000       12.3664       12.3664      12.363927       0.28159
  50     2.102        0.0025        0.0000       12.3498       12.3498      12.347293       0.23256
  49     2.949        0.0025        0.0000       12.3302       12.3302      12.327758       0.19473
  48     4.137        0.0025        0.0000       12.3067       12.3068      12.304293       0.16675
  47     5.803        0.0025        0.0000       12.2766       12.2766      12.274175       0.15257
  46     8.139        0.0025        0.0000       12.2347       12.2348      12.232307       0.15121
  45     11.42        0.0024        0.0000       12.1733       12.1733      12.170894       0.15812
  44     16.01        0.0024        0.0000       12.0830       12.0830      12.080583       0.16577
  43     22.46        0.0024        0.0000       11.9527       11.9527      11.950293       0.17049
  42     31.51        0.0024        0.0000       11.7748       11.7748      11.772408       0.16594
  41     44.20        0.0024        0.0001       11.5551       11.5552      11.552771       0.14607
  40     62.00        0.0024        0.0001       11.3050       11.3051      11.302703       0.11856
  39     85.78        0.0024        0.0001       11.0142       11.0143      11.011915       0.10322
  38     109.5        0.0023        0.0001       10.7175       10.7176      10.715295       0.10529
  37     133.1        0.0023        0.0002       10.4459       10.4460      10.443749       0.09752
  36     156.8        0.0023        0.0002       10.1944       10.1946      10.192361       0.08914
  35     180.6        0.0022        0.0002        9.9218        9.9220       9.919803       0.09676
  34     202.8        0.0022        0.0002        9.5970        9.5973       9.595033       0.12331
  33     228.4        0.0022        0.0002        9.1820        9.1823       9.180096       0.13690
  32     252.2        0.0022        0.0003        8.7004        8.7006       8.698455       0.17096
  31     276.0        0.0022        0.0003        8.1693        8.1695       8.167381       0.18851
  30     299.8        0.0021        0.0003        7.5886        7.5889       7.586729       0.20611
  29     323.5        0.0021        0.0003        6.9823        6.9825       6.980399       0.21522
  28     347.3        0.0021        0.0003        6.3629        6.3631       6.360985       0.21987
  27     371.1        0.0021        0.0002        5.7699        5.7701       5.768007       0.21048
  26     394.9        0.0021        0.0002        5.2041        5.2043       5.202164       0.20085
  25     418.6        0.0021        0.0002        4.6962        4.6964       4.694242       0.18029
  24     442.4        0.0022        0.0002        4.2409        4.2411       4.238954       0.16161
  23     466.2        0.0022        0.0002        3.8328        3.8330       3.830771       0.14489
  22     489.9        0.0022        0.0002        3.4648        3.4650       3.462805       0.13061
  21     513.7        0.0023        0.0002        3.1218        3.1220       3.119698       0.12179
  20     537.5        0.0024        0.0002        2.8040        2.8042       2.801805       0.11284
  19     561.3        0.0025        0.0002        2.5083        2.5084       2.505940       0.10502
  18     585.0        0.0026        0.0001        2.2301        2.2302       2.227605       0.09880
  17     608.8        0.0028        0.0001        1.9731        1.9732       1.970404       0.09130
  16     632.6        0.0030        0.0001        1.7337        1.7338       1.730814       0.08504
  15     656.4        0.0033        0.0001        1.5041        1.5042       1.500876       0.08162
  14     680.1        0.0038        0.0001        1.2888        1.2888       1.285081       0.07660
  13     703.9        0.0043        0.0001        1.0908        1.0908       1.086502       0.07049
  12     727.7        0.0052        0.0001        0.9082        0.9083       0.903076       0.06511
  11     751.5        0.0064        0.0001        0.7390        0.7391       0.732655       0.06049
  10     775.2        0.0083        0.0000        0.5856        0.5857       0.577345       0.05513
   9     799.0        0.0114        0.0000        0.4484        0.4484       0.437015       0.04981
   8     822.8        0.0073        0.0065        0.3161        0.3226       0.315267       0.04322
   7     846.6        0.0043        0.0086        0.2169        0.2255       0.221123       0.03342
   6     870.4        0.0020        0.0083        0.1446        0.1529       0.150842       0.02495
   5     894.1        0.0000        0.0068        0.0933        0.1002       0.100159       0.01799
   4     917.9        0.0000        0.0040        0.0603        0.0643       0.064269       0.01274
   3     941.7        0.0000        0.0022        0.0372        0.0394       0.039367       0.00884
   2     965.5        0.0001        0.0011        0.0219        0.0231       0.022998       0.00581
   1     989.2        0.0001        0.0006        0.0123        0.0128       0.012738       0.00364
   0    1013.0        0.0002        0.0003        0.0065        0.0068       0.006559       0.00219



 Wavenumbers:  4000. -  4650. cm-1, ATM      1
 LEVEL PRESSURE   UPWARD FLUX   DIFDOWN FLUX  DIRDOWN FLUX  DOWNWARD FLUX   NET FLUX    HEATING RATE
          mb          W/m2          W/m2          W/m2        W/m2          W/m2       degree/day
  60   .000300        0.9810        0.0000       14.6183       14.6183      13.637258       0.00000
  59    0.1000        0.9810        0.0000       14.6182       14.6182      13.637249       0.00076
  58    0.1403        0.9810        0.0000       14.6182       14.6182      13.637246       0.00076
  57    0.1968        0.9810        0.0000       14.6182       14.6182      13.637241       0.00077
  56    0.2760        0.9810        0.0000       14.6182       14.6182      13.637233       0.00076
  55    0.3871        0.9810        0.0000       14.6182       14.6182      13.637223       0.00080
  54    0.5430        0.9810        0.0000       14.6182       14.6182      13.637207       0.00085
  53    0.7617        0.9810        0.0000       14.6182       14.6182      13.637183       0.00095
  52     1.069        0.9810        0.0000       14.6181       14.6181      13.637141       0.00114
  51     1.499        0.9810        0.0000       14.6180       14.6181      13.637064       0.00151
  50     2.102        0.9810        0.0000       14.6179       14.6179      13.636923       0.00197
  49     2.949        0.9810        0.0000       14.6176       14.6177      13.636670       0.00252
  48     4.137        0.9810        0.0000       14.6172       14.6172      13.636241       0.00305
  47     5.803        0.9810        0.0000       14.6165       14.6165      13.635550       0.00350
  46     8.139        0.9810        0.0000       14.6154       14.6154      13.634468       0.00391
  45     11.42        0.9810        0.0000       14.6137       14.6138      13.632800       0.00429
  44     16.01        0.9809        0.0001       14.6112       14.6112      13.630273       0.00464
  43     22.46        0.9809        0.0001       14.6074       14.6074      13.626506       0.00493
  42     31.51        0.9809        0.0001       14.6017       14.6018      13.620873       0.00525
  41     44.20        0.9809        0.0002       14.5927       14.5929      13.611981       0.00591
  40     62.00        0.9808        0.0002       14.5788       14.5790      13.598186       0.00654
  39     85.78        0.9808        0.0003       14.5592       14.5596      13.578738       0.00690
  38     109.5        0.9808        0.0004       14.5382       14.5386      13.557743       0.00745
  37     133.1        0.9809        0.0005       14.5177       14.5182      13.537359       0.00732
  36     156.8        0.9809        0.0006       14.4977       14.4982      13.517358       0.00709
  35     180.6        0.9810        0.0007       14.4759       14.4766      13.495613       0.00772
  34     202.8        0.9810        0.0008       14.4536       14.4544      13.473325       0.00846
  33     228.4        0.9812        0.0008       14.4280       14.4289      13.447684       0.00846
  32     252.2        0.9814        0.0009       14.3983       14.3992      13.417840       0.01059
  31     276.0        0.9817        0.0010       14.3635       14.3646      13.382857       0.01242
  30     299.8        0.9821        0.0011       14.3217       14.3228      13.340691       0.01497
  29     323.5        0.9826        0.0012       14.2720       14.2732      13.290598       0.01778
  28     347.3        0.9833        0.0013       14.2129       14.2142      13.230905       0.02119
  27     371.1        0.9840        0.0013       14.1438       14.1451      13.161088       0.02478
  26     394.9        0.9848        0.0014       14.0605       14.0619      13.077024       0.02984
  25     418.6        0.9858        0.0015       13.9639       13.9654      12.979627       0.03457
  24     442.4        0.9869        0.0016       13.8548       13.8563      12.869449       0.03911
  23     466.2        0.9881        0.0016       13.7365       13.7381      12.750021       0.04239
  22     489.9        0.9895        0.0017       13.6136       13.6153      12.625825       0.04408
  21     513.7        0.9911        0.0018       13.4859       13.4877      12.496611       0.04587
  20     537.5        0.9929        0.0018       13.3568       13.3586      12.365661       0.04648
  19     561.3        0.9951        0.0019       13.2261       13.2280      12.232927       0.04712
  18     585.0        0.9975        0.0019       13.0915       13.0935      12.095902       0.04864
  17     608.8        1.0004        0.0020       12.9542       12.9562      11.955803       0.04973
  16     632.6        1.0037        0.0021       12.8109       12.8130      11.809327       0.05199
  15     656.4        1.0075        0.0021       12.6541       12.6562      11.648667       0.05703
  14     680.1        1.0121        0.0022       12.4832       12.4854      11.473265       0.06226
  13     703.9        1.0176        0.0022       12.2977       12.2999      11.282302       0.06778
  12     727.7        1.0243        0.0022       12.0950       12.0972      11.072893       0.07433
  11     751.5        1.0328        0.0023       11.8732       11.8755      10.842694       0.08171
  10     775.2        1.0436        0.0023       11.6374       11.6397      10.596128       0.08752
   9     799.0        1.0575        0.0023       11.3910       11.3933      10.335807       0.09240
   8     822.8        0.8642        0.2390       10.6962       10.9352      10.071035       0.09398
   7     846.6        0.6739        0.4491       10.0528       10.5019       9.828070       0.08624
   6     870.4        0.4856        0.6351        9.4572       10.0923       9.606734       0.07857
   5     894.1        0.2984        0.7979        8.9046        9.7025       9.404069       0.07194
   4     917.9        0.3021        0.7806        8.7349        9.5155       9.213430       0.06767
   3     941.7        0.3063        0.7639        8.5700        9.3339       9.027558       0.06598
   2     965.5        0.3112        0.7478        8.4092        9.1570       8.845753       0.06453
   1     989.2        0.3170        0.7321        8.2520        8.9841       8.667057       0.06342
   0    1013.0        0.3238        0.7167        8.0965        8.8132       8.489383       0.06308



 Wavenumbers:  4650. -  5150. cm-1, ATM      1
 LEVEL PRESSURE   UPWARD FLUX   DIFDOWN FLUX  DIRDOWN FLUX  DOWNWARD FLUX   NET FLUX    HEATING RATE
          mb          W/m2          W/m2          W/m2        W/m2          W/m2       degree/day
  60   .000300        0.7182        0.0000       13.8369       13.8369      13.118630       0.00000
  59    0.1000        0.7182        0.0000       13.8347       13.8347      13.116512       0.17928
  58    0.1403        0.7182        0.0000       13.8339       13.8339      13.115674       0.17564
  57    0.1968        0.7182        0.0000       13.8327       13.8327      13.114508       0.17409
  56    0.2760        0.7182        0.0000       13.8312       13.8312      13.112919       0.16935
  55    0.3871        0.7182        0.0000       13.8290       13.8290      13.110739       0.16558
  54    0.5430        0.7182        0.0000       13.8260       13.8260      13.107803       0.15890
  53    0.7617        0.7182        0.0000       13.8221       13.8221      13.103899       0.15065
  52     1.069        0.7182        0.0000       13.8170       13.8170      13.098747       0.14174
  51     1.499        0.7182        0.0000       13.8105       13.8105      13.092263       0.12716
  50     2.102        0.7182        0.0000       13.8026       13.8026      13.084392       0.11004
  49     2.949        0.7182        0.0000       13.7933       13.7933      13.075095       0.09268
  48     4.137        0.7182        0.0000       13.7830       13.7831      13.064852       0.07278
  47     5.803        0.7182        0.0000       13.7724       13.7724      13.054207       0.05393
  46     8.139        0.7182        0.0000       13.7615       13.7616      13.043383       0.03909
  45     11.42        0.7182        0.0001       13.7497       13.7498      13.031620       0.03029
  44     16.01        0.7182        0.0001       13.7347       13.7348      13.016604       0.02756
  43     22.46        0.7182        0.0001       13.7122       13.7123      12.994137       0.02940
  42     31.51        0.7181        0.0002       13.6758       13.6760      12.957873       0.03383
  41     44.20        0.7181        0.0003       13.6167       13.6170      12.898857       0.03925
  40     62.00        0.7181        0.0003       13.5244       13.5248      12.806641       0.04372
  39     85.78        0.7182        0.0005       13.3944       13.3949      12.676762       0.04610
  38     109.5        0.7182        0.0006       13.2650       13.2656      12.547406       0.04592
  37     133.1        0.7184        0.0007       13.1487       13.1495      12.431113       0.04176
  36     156.8        0.7185        0.0008       13.0449       13.0457      12.327186       0.03685
  35     180.6        0.7188        0.0010       12.9437       12.9446      12.225892       0.03596
  34     202.8        0.7190        0.0011       12.8534       12.8545      12.135490       0.03432
  33     228.4        0.7194        0.0012       12.7658       12.7670      12.047626       0.02899
  32     252.2        0.7198        0.0013       12.6801       12.6815      11.961673       0.03051
  31     276.0        0.7203        0.0014       12.5950       12.5965      11.876148       0.03036
  30     299.8        0.7210        0.0016       12.5053       12.5068      11.785855       0.03205
  29     323.5        0.7218        0.0017       12.4093       12.4109      11.689107       0.03434
  28     347.3        0.7228        0.0018       12.3075       12.3092      11.586435       0.03644
  27     371.1        0.7240        0.0019       12.1993       12.2012      11.477211       0.03877
  26     394.9        0.7253        0.0020       12.0815       12.0835      11.358173       0.04225
  25     418.6        0.7269        0.0021       11.9549       11.9569      11.230010       0.04549
  24     442.4        0.7287        0.0022       11.8185       11.8207      11.091973       0.04900
  23     466.2        0.7308        0.0022       11.6730       11.6753      10.944451       0.05236
  22     489.9        0.7331        0.0023       11.5203       11.5226      10.789481       0.05501
  21     513.7        0.7358        0.0024       11.3577       11.3601      10.624264       0.05865
  20     537.5        0.7388        0.0025       11.1878       11.1903      10.451479       0.06133
  19     561.3        0.7422        0.0025       11.0105       11.0130      10.270782       0.06414
  18     585.0        0.7462        0.0026       10.8249       10.8275      10.081325       0.06725
  17     608.8        0.7505        0.0027       10.6366       10.6393       9.888748       0.06836
  16     632.6        0.7554        0.0027       10.4463       10.4491       9.693641       0.06925
  15     656.4        0.7611        0.0028       10.2497       10.2525       9.491377       0.07180
  14     680.1        0.7675        0.0028       10.0509       10.0538       9.286247       0.07281
  13     703.9        0.7748        0.0028        9.8514        9.8542       9.079405       0.07342
  12     727.7        0.7834        0.0029        9.6483        9.6512       8.867802       0.07511
  11     751.5        0.7936        0.0029        9.4402        9.4431       8.649566       0.07746
  10     775.2        0.8057        0.0029        9.2294        9.2323       8.426675       0.07912
   9     799.0        0.8202        0.0030        9.0169        9.0198       8.199612       0.08060
   8     822.8        0.6698        0.1901        8.4567        8.6468       7.976986       0.07902
   7     846.6        0.5212        0.3543        7.9368        8.2911       7.769907       0.07350
   6     870.4        0.3740        0.4992        7.4536        7.9528       7.578805       0.06783
   5     894.1        0.2276        0.6266        7.0032        7.6298       7.402211       0.06268
   4     917.9        0.2313        0.6111        6.8539        7.4650       7.233732       0.05980
   3     941.7        0.2354        0.5961        6.7080        7.3041       7.068662       0.05859
   2     965.5        0.2401        0.5816        6.5659        7.1475       6.907396       0.05724
   1     989.2        0.2454        0.5677        6.4271        6.9948       6.749344       0.05609
   0    1013.0        0.2515        0.5542        6.2915        6.8457       6.594249       0.05506



 Wavenumbers:  5150. -  6150. cm-1, ATM      1
 LEVEL PRESSURE   UPWARD FLUX   DIFDOWN FLUX  DIRDOWN FLUX  DOWNWARD FLUX   NET FLUX    HEATING RATE
          mb          W/m2          W/m2          W/m2        W/m2          W/m2       degree/day
  60   .000300        1.7184        0.0000       34.6891       34.6891      32.970681       0.00000
  59    0.1000        1.7184        0.0000       34.6886       34.6886      32.970185       0.04198
  58    0.1403        1.7184        0.0000       34.6884       34.6884      32.969985       0.04191
  57    0.1968        1.7184        0.0000       34.6881       34.6881      32.969703       0.04207
  56    0.2760        1.7184        0.0000       34.6877       34.6877      32.969312       0.04164
  55    0.3871        1.7184        0.0000       34.6871       34.6871      32.968763       0.04174
  54    0.5430        1.7184        0.0000       34.6864       34.6864      32.967997       0.04144
  53    0.7617        1.7184        0.0000       34.6853       34.6853      32.966929       0.04124
  52     1.069        1.7184        0.0000       34.6838       34.6838      32.965423       0.04142
  51     1.499        1.7184        0.0000       34.6817       34.6817      32.963334       0.04097
  50     2.102        1.7183        0.0001       34.6787       34.6788      32.960447       0.04036
  49     2.949        1.7183        0.0001       34.6746       34.6747      32.956372       0.04062
  48     4.137        1.7183        0.0001       34.6689       34.6690      32.950706       0.04026
  47     5.803        1.7183        0.0002       34.6610       34.6612      32.942896       0.03957
  46     8.139        1.7182        0.0002       34.6502       34.6504      32.932197       0.03864
  45     11.42        1.7182        0.0003       34.6356       34.6358      32.917674       0.03739
  44     16.01        1.7181        0.0004       34.6159       34.6163      32.898212       0.03572
  43     22.46        1.7180        0.0006       34.5899       34.5905      32.872511       0.03363
  42     31.51        1.7178        0.0008       34.5564       34.5572      32.839343       0.03094
  41     44.20        1.7177        0.0011       34.5139       34.5151      32.797426       0.02788
  40     62.00        1.7174        0.0016       34.4619       34.4635      32.746058       0.02435
  39     85.78        1.7171        0.0022       34.4020       34.4042      32.687100       0.02093
  38     109.5        1.7168        0.0028       34.3491       34.3519      32.635135       0.01845
  37     133.1        1.7165        0.0034       34.3031       34.3065      32.590012       0.01620
  36     156.8        1.7163        0.0040       34.2595       34.2635      32.547226       0.01517
  35     180.6        1.7160        0.0046       34.2031       34.2077      32.491683       0.01972
  34     202.8        1.7157        0.0052       34.1091       34.1143      32.398603       0.03534
  33     228.4        1.7155        0.0058       33.9252       33.9310      32.215491       0.06042
  32     252.2        1.7153        0.0063       33.6087       33.6149      31.899689       0.11210
  31     276.0        1.7151        0.0068       33.1225       33.1293      31.414238       0.17232
  30     299.8        1.7149        0.0072       32.4763       32.4836      30.768621       0.22917
  29     323.5        1.7149        0.0076       31.7610       31.7686      30.053731       0.25376
  28     347.3        1.7149        0.0080       31.0137       31.0217      29.306827       0.26512
  27     371.1        1.7150        0.0083       30.2247       30.2330      28.517981       0.28001
  26     394.9        1.7152        0.0086       29.3520       29.3606      27.645315       0.30976
  25     418.6        1.7156        0.0088       28.4400       28.4488      26.733224       0.32375
  24     442.4        1.7161        0.0090       27.5194       27.5284      25.812313       0.32689
  23     466.2        1.7168        0.0092       26.6227       26.6319      24.915148       0.31846
  22     489.9        1.7177        0.0094       25.7669       25.7762      24.058545       0.30406
  21     513.7        1.7188        0.0095       24.9371       24.9466      23.227755       0.29490
  20     537.5        1.7203        0.0097       24.1537       24.1634      22.443078       0.27853
  19     561.3        1.7222        0.0098       23.4247       23.4345      21.712319       0.25939
  18     585.0        1.7246        0.0099       22.7500       22.7599      21.035387       0.24028
  17     608.8        1.7274        0.0101       22.1480       22.1581      20.430717       0.21463
  16     632.6        1.7309        0.0103       21.6116       21.6219      19.890999       0.19158
  15     656.4        1.7352        0.0104       21.1193       21.1298      19.394582       0.17621
  14     680.1        1.7405        0.0106       20.6722       20.6828      18.942257       0.16056
  13     703.9        1.7472        0.0108       20.2664       20.2771      18.529965       0.14635
  12     727.7        1.7556        0.0109       19.8884       19.8994      18.143764       0.13709
  11     751.5        1.7665        0.0111       19.5264       19.5376      17.771027       0.13231
  10     775.2        1.7807        0.0113       19.1765       19.1878      17.407067       0.12919
   9     799.0        1.7994        0.0114       18.8290       18.8404      17.041023       0.12993
   8     822.8        1.4753        0.4032       17.7430       18.1462      16.670908       0.13138
   7     846.6        1.1555        0.7542       16.7275       17.4816      16.326114       0.12239
   6     870.4        0.8388        1.0673       15.7770       16.8443      16.005565       0.11378
   5     894.1        0.5238        1.3440       14.8863       16.2303      15.706460       0.10617
   4     917.9        0.5272        1.3186       14.6323       15.9509      15.423731       0.10036
   3     941.7        0.5313        1.2949       14.3882       15.6831      15.151845       0.09651
   2     965.5        0.5363        1.2729       14.1569       15.4298      14.893557       0.09168
   1     989.2        0.5425        1.2528       13.9398       15.1926      14.650071       0.08641
   0    1013.0        0.5506        1.2344       13.7370       14.9714      14.420824       0.08139



 Wavenumbers:  6150. -  7700. cm-1, ATM      1
 LEVEL PRESSURE   UPWARD FLUX   DIFDOWN FLUX  DIRDOWN FLUX  DOWNWARD FLUX   NET FLUX    HEATING RATE
          mb          W/m2          W/m2          W/m2        W/m2          W/m2       degree/day
  60   .000300        2.6713        0.0000       64.1588       64.1588      61.487506       0.00000
  59    0.1000        2.6713        0.0000       64.1581       64.1581      61.486846       0.05584
  58    0.1403        2.6713        0.0000       64.1578       64.1578      61.486579       0.05593
  57    0.1968        2.6712        0.0000       64.1574       64.1574      61.486202       0.05625
  56    0.2760        2.6712        0.0000       64.1569       64.1569      61.485678       0.05580
  55    0.3871        2.6712        0.0000       64.1561       64.1562      61.484941       0.05604
  54    0.5430        2.6712        0.0001       64.1551       64.1551      61.483910       0.05578
  53    0.7617        2.6712        0.0001       64.1536       64.1537      61.482469       0.05562
  52     1.069        2.6712        0.0001       64.1515       64.1516      61.480437       0.05590
  51     1.499        2.6711        0.0002       64.1486       64.1487      61.477620       0.05524
  50     2.102        2.6711        0.0002       64.1446       64.1448      61.473731       0.05437
  49     2.949        2.6710        0.0003       64.1389       64.1392      61.468246       0.05468
  48     4.137        2.6708        0.0005       64.1310       64.1315      61.460614       0.05423
  47     5.803        2.6707        0.0006       64.1201       64.1207      61.450065       0.05344
  46     8.139        2.6704        0.0009       64.1051       64.1060      61.435530       0.05249
  45     11.42        2.6701        0.0012       64.0845       64.0857      61.415613       0.05128
  44     16.01        2.6697        0.0017       64.0565       64.0582      61.388564       0.04965
  43     22.46        2.6690        0.0024       64.0187       64.0211      61.352135       0.04767
  42     31.51        2.6681        0.0034       63.9683       63.9717      61.303627       0.04525
  41     44.20        2.6668        0.0048       63.9021       63.9069      61.240085       0.04226
  40     62.00        2.6651        0.0067       63.8170       63.8237      61.158657       0.03861
  39     85.78        2.6627        0.0093       63.7137       63.7230      61.060264       0.03493
  38     109.5        2.6603        0.0119       63.6174       63.6293      60.968964       0.03241
  37     133.1        2.6580        0.0144       63.5307       63.5450      60.887006       0.02943
  36     156.8        2.6558        0.0168       63.4470       63.4638      60.807971       0.02803
  35     180.6        2.6534        0.0193       63.3411       63.3605      60.707036       0.03583
  34     202.8        2.6512        0.0218       63.1774       63.1992      60.548036       0.06037
  33     228.4        2.6489        0.0242       62.8910       62.9153      60.266335       0.09294
  32     252.2        2.6467        0.0265       62.4548       62.4814      59.834651       0.15323
  31     276.0        2.6446        0.0287       61.8034       61.8321      59.187482       0.22972
  30     299.8        2.6427        0.0307       60.8493       60.8799      58.237270       0.33729
  29     323.5        2.6409        0.0324       59.6406       59.6731      57.032160       0.42776
  28     347.3        2.6394        0.0340       58.2994       58.3334      55.694030       0.47498
  27     371.1        2.6381        0.0354       56.9373       56.9728      54.334643       0.48253
  26     394.9        2.6372        0.0367       55.4853       55.5221      52.884868       0.51461
  25     418.6        2.6367        0.0378       53.9434       53.9812      51.344515       0.54676
  24     442.4        2.6366        0.0387       52.3152       52.3539      49.717327       0.57758
  23     466.2        2.6370        0.0395       50.6699       50.7094      48.072371       0.58389
  22     489.9        2.6381        0.0402       49.0609       49.1012      46.463069       0.57124
  21     513.7        2.6399        0.0408       47.4627       47.5036      44.863632       0.56773
  20     537.5        2.6427        0.0413       45.9016       45.9430      43.300309       0.55492
  19     561.3        2.6465        0.0417       44.3828       44.4245      41.778050       0.54034
  18     585.0        2.6516        0.0421       42.9069       42.9490      40.297376       0.52558
  17     608.8        2.6581        0.0424       41.5192       41.5617      38.903601       0.49473
  16     632.6        2.6662        0.0427       40.2123       40.2550      37.588857       0.46668
  15     656.4        2.6765        0.0430       38.9372       38.9802      36.303666       0.45619
  14     680.1        2.6896        0.0432       37.7038       37.7470      35.057437       0.44236
  13     703.9        2.7061        0.0433       36.5148       36.5581      33.852023       0.42787
  12     727.7        2.7273        0.0434       35.3478       35.3912      32.663891       0.42174
  11     751.5        2.7553        0.0434       34.1879       34.2313      31.475996       0.42165
  10     775.2        2.7923        0.0434       33.0529       33.0963      30.303977       0.41602
   9     799.0        2.8422        0.0432       31.9455       31.9888      29.146585       0.41083
   8     822.8        2.3131        0.6942       29.6513       30.3455      28.032457       0.39547
   7     846.6        1.7951        1.2594       27.5861       28.8455      27.050427       0.34858
   6     870.4        1.2849        1.7536       25.7183       27.4719      26.187069       0.30646
   5     894.1        0.7787        2.1798       24.0163       26.1961      25.417393       0.27320
   4     917.9        0.7878        2.1160       23.3815       25.4975      24.709684       0.25121
   3     941.7        0.7988        2.0568       22.7804       24.8372      24.038452       0.23826
   2     965.5        0.8120        2.0019       22.2139       24.2158      23.403751       0.22529
   1     989.2        0.8283        1.9509       21.6792       23.6301      22.801788       0.21363
   0    1013.0        0.8487        1.9032       21.1738       23.0770      22.228307       0.20361



 Wavenumbers:  7700. -  8050. cm-1, ATM      1
 LEVEL PRESSURE   UPWARD FLUX   DIFDOWN FLUX  DIRDOWN FLUX  DOWNWARD FLUX   NET FLUX    HEATING RATE
          mb          W/m2          W/m2          W/m2        W/m2          W/m2       degree/day
  60   .000300        1.3676        0.0000       15.1626       15.1626      13.795011       0.00000
  59    0.1000        1.3676        0.0000       15.1625       15.1625      13.794841       0.01433
  58    0.1403        1.3676        0.0000       15.1624       15.1624      13.794772       0.01441
  57    0.1968        1.3676        0.0000       15.1623       15.1623      13.794675       0.01449
  56    0.2760        1.3676        0.0000       15.1622       15.1622      13.794540       0.01437
  55    0.3871        1.3676        0.0000       15.1620       15.1620      13.794350       0.01444
  54    0.5430        1.3676        0.0000       15.1617       15.1617      13.794085       0.01438
  53    0.7617        1.3677        0.0000       15.1613       15.1614      13.793713       0.01435
  52     1.069        1.3677        0.0000       15.1608       15.1609      13.793188       0.01445
  51     1.499        1.3677        0.0001       15.1601       15.1602      13.792458       0.01432
  50     2.102        1.3677        0.0001       15.1591       15.1592      13.791446       0.01415
  49     2.949        1.3678        0.0001       15.1576       15.1578      13.790010       0.01431
  48     4.137        1.3678        0.0002       15.1556       15.1558      13.787995       0.01432
  47     5.803        1.3679        0.0003       15.1528       15.1531      13.785180       0.01426
  46     8.139        1.3680        0.0004       15.1489       15.1493      13.781242       0.01422
  45     11.42        1.3682        0.0005       15.1434       15.1439      13.775734       0.01418
  44     16.01        1.3684        0.0007       15.1358       15.1365      13.768040       0.01412
  43     22.46        1.3688        0.0010       15.1251       15.1261      13.757287       0.01407
  42     31.51        1.3692        0.0014       15.1101       15.1115      13.742268       0.01401
  41     44.20        1.3699        0.0019       15.0892       15.0912      13.721289       0.01395
  40     62.00        1.3708        0.0027       15.0604       15.0631      13.692271       0.01376
  39     85.78        1.3721        0.0037       15.0223       15.0261      13.653962       0.01360
  38     109.5        1.3734        0.0048       14.9841       14.9889      13.615510       0.01365
  37     133.1        1.3747        0.0058       14.9478       14.9536      13.578919       0.01314
  36     156.8        1.3760        0.0067       14.9129       14.9197      13.543703       0.01249
  35     180.6        1.3774        0.0078       14.8763       14.8841      13.506704       0.01314
  34     202.8        1.3787        0.0087       14.8414       14.8502      13.471449       0.01339
  33     228.4        1.3801        0.0097       14.8062       14.8160      13.435825       0.01175
  32     252.2        1.3816        0.0107       14.7713       14.7820      13.400415       0.01257
  31     276.0        1.3830        0.0117       14.7370       14.7487      13.365669       0.01233
  30     299.8        1.3846        0.0127       14.7027       14.7154      13.330860       0.01236
  29     323.5        1.3861        0.0137       14.6685       14.6822      13.296090       0.01234
  28     347.3        1.3877        0.0146       14.6347       14.6494      13.261664       0.01222
  27     371.1        1.3893        0.0156       14.6014       14.6170      13.227653       0.01207
  26     394.9        1.3911        0.0166       14.5675       14.5841      13.193056       0.01228
  25     418.6        1.3928        0.0175       14.5336       14.5512      13.158330       0.01233
  24     442.4        1.3947        0.0185       14.4995       14.5180      13.123337       0.01242
  23     466.2        1.3966        0.0194       14.4651       14.4846      13.087932       0.01257
  22     489.9        1.3986        0.0204       14.4307       14.4511      13.052480       0.01258
  21     513.7        1.4008        0.0213       14.3957       14.4170      13.016239       0.01286
  20     537.5        1.4030        0.0223       14.3603       14.3826      12.979616       0.01300
  19     561.3        1.4053        0.0232       14.3246       14.3478      12.942451       0.01319
  18     585.0        1.4078        0.0241       14.2875       14.3116      12.903831       0.01371
  17     608.8        1.4104        0.0250       14.2500       14.2750      12.864611       0.01392
  16     632.6        1.4132        0.0259       14.2119       14.2378      12.824662       0.01418
  15     656.4        1.4162        0.0268       14.1722       14.1990      12.782872       0.01483
  14     680.1        1.4193        0.0277       14.1314       14.1590      12.739705       0.01532
  13     703.9        1.4228        0.0286       14.0891       14.1177      12.694901       0.01590
  12     727.7        1.4265        0.0294       14.0446       14.0740      12.647523       0.01682
  11     751.5        1.4307        0.0303       13.9973       14.0276      12.596925       0.01796
  10     775.2        1.4352        0.0311       13.9473       13.9785      12.543242       0.01906
   9     799.0        1.4403        0.0320       13.8944       13.9264      12.486083       0.02029
   8     822.8        1.1907        0.3289       13.2875       13.6164      12.425714       0.02143
   7     846.6        0.9422        0.6024       12.7054       13.3078      12.365633       0.02133
   6     870.4        0.6946        0.8531       12.1478       13.0009      12.306267       0.02107
   5     894.1        0.4479        1.0824       11.6134       12.6957      12.247795       0.02076
   4     917.9        0.4493        1.0773       11.5605       12.6378      12.188409       0.02108
   3     941.7        0.4509        1.0720       11.5058       12.5778      12.126881       0.02184
   2     965.5        0.4526        1.0665       11.4496       12.5161      12.063521       0.02249
   1     989.2        0.4545        1.0609       11.3920       12.4528      11.998337       0.02313
   0    1013.0        0.4565        1.0551       11.3327       12.3878      11.931260       0.02381



 Wavenumbers:  8050. - 12850. cm-1, ATM      1
 LEVEL PRESSURE   UPWARD FLUX   DIFDOWN FLUX  DIRDOWN FLUX  DOWNWARD FLUX   NET FLUX    HEATING RATE
          mb          W/m2          W/m2          W/m2        W/m2          W/m2       degree/day
  60   .000300       17.8266        0.0000      212.2880      212.2880     194.461362       0.00000
  59    0.1000       17.8264        0.0002      212.2876      212.2878     194.461362       0.00000
  58    0.1403       17.8264        0.0003      212.2874      212.2877     194.461362       0.00000
  57    0.1968       17.8263        0.0004      212.2872      212.2876     194.461362       0.00000
  56    0.2760       17.8261        0.0006      212.2869      212.2875     194.461362       0.00000
  55    0.3871       17.8259        0.0008      212.2864      212.2873     194.461362      -0.00000
  54    0.5430       17.8256        0.0012      212.2858      212.2870     194.461362      -0.00000
  53    0.7617       17.8252        0.0016      212.2850      212.2866     194.461362       0.00000
  52     1.069       17.8247        0.0023      212.2837      212.2860     194.461362      -0.00000
  51     1.499       17.8239        0.0032      212.2820      212.2853     194.461362      -0.00000
  50     2.102       17.8228        0.0045      212.2797      212.2842     194.461362       0.00000
  49     2.949       17.8213        0.0063      212.2763      212.2826     194.461362       0.00000
  48     4.137       17.8191        0.0088      212.2717      212.2805     194.461362       0.00000
  47     5.803       17.8161        0.0124      212.2651      212.2775     194.461362       0.00000
  46     8.139       17.8119        0.0174      212.2559      212.2733     194.461362      -0.00000
  45     11.42       17.8060        0.0243      212.2430      212.2674     194.461362       0.00000
  44     16.01       17.7977        0.0341      212.2250      212.2591     194.461362      -0.00000
  43     22.46       17.7861        0.0478      212.1998      212.2475     194.461362      -0.00000
  42     31.51       17.7699        0.0669      212.1643      212.2312     194.461362       0.00000
  41     44.20       17.7470        0.0939      212.1145      212.2084     194.461362      -0.00000
  40     62.00       17.7151        0.1315      212.0450      212.1765     194.461362       0.00000
  39     85.78       17.6725        0.1817      211.9522      212.1339     194.461362       0.00000
  38     109.5       17.6293        0.2327      211.8451      212.0778     194.448558       0.00454
  37     133.1       17.5876        0.2818      211.7421      212.0239     194.436284       0.00441
  36     156.8       17.5470        0.3295      211.6412      211.9707     194.423670       0.00447
  35     180.6       17.5038        0.3803      211.5292      211.9094     194.405606       0.00641
  34     202.8       17.4623        0.4291      211.4041      211.8332     194.370958       0.01315
  33     228.4       17.4199        0.4789      211.2349      211.7138     194.293869       0.02543
  32     252.2       17.3776        0.5286      211.0003      211.5290     194.151378       0.05058
  31     276.0       17.3360        0.5776      210.6760      211.2536     193.917576       0.08299
  30     299.8       17.2946        0.6267      210.2328      210.8594     193.564867       0.12520
  29     323.5       17.2537        0.6755      209.6743      210.3498     193.096131       0.16638
  28     347.3       17.2140        0.7234      209.0175      209.7410     192.527004       0.20202
  27     371.1       17.1758        0.7704      208.2872      209.0576     191.881818       0.22901
  26     394.9       17.1383        0.8174      207.4416      208.2590     191.120661       0.27018
  25     418.6       17.1026        0.8636      206.4758      207.3395     190.236902       0.31370
  24     442.4       17.0688        0.9091      205.3737      206.2827     189.213975       0.36310
  23     466.2       17.0370        0.9538      204.1488      205.1026     188.065599       0.40763
  22     489.9       17.0081        0.9972      202.8236      203.8208     186.812720       0.44472
  21     513.7       16.9821        1.0399      201.3667      202.4067     185.424547       0.49274
  20     537.5       16.9601        1.0812      199.7935      200.8747     183.914642       0.53595
  19     561.3       16.9426        1.1211      198.0998      199.2208     182.278256       0.58085
  18     585.0       16.9297        1.1604      196.2781      197.4385     180.508861       0.62806
  17     608.8       16.9223        1.1984      194.3934      195.5919     178.669591       0.65287
  16     632.6       16.9211        1.2350      192.4530      193.6880     176.766881       0.67538
  15     656.4       16.9280        1.2710      190.4000      191.6710     174.743009       0.71839
  14     680.1       16.9451        1.3052      188.2528      189.5580     172.612869       0.75611
  13     703.9       16.9747        1.3378      186.0204      187.3582     170.383461       0.79135
  12     727.7       17.0205        1.3691      183.6647      185.0338     168.013273       0.84132
  11     751.5       17.0888        1.3987      181.1466      182.5453     165.456471       0.90756
  10     775.2       17.1856        1.4260      178.4925      179.9185     162.732885       0.96676
   9     799.0       17.3202        1.4512      175.7106      177.1618     159.841656       1.02627
   8     822.8       14.2329        5.1064      165.9594      171.0658     156.832939       1.06797
   7     846.6       11.1866        8.4645      156.7963      165.2608     154.074290       0.97921
   6     870.4        8.1623       11.4224      148.1972      159.6196     151.457267       0.92894
   5     894.1        5.1549       14.0487      140.1280      154.1767     149.021812       0.86449
   4     917.9        5.1666       13.8440      138.0046      151.8485     146.681988       0.83054
   3     941.7        5.1853       13.6468      135.9261      149.5729     144.387568       0.81442
   2     965.5        5.2125       13.4576      133.9045      147.3621     142.149606       0.79438
   1     989.2        5.2501       13.2757      131.9388      145.2144     139.964282       0.77554
   0    1013.0        5.3008       13.1004      130.0238      143.1242     137.823436       0.76007



 Wavenumbers: 12850. - 16000. cm-1, ATM      1
 LEVEL PRESSURE   UPWARD FLUX   DIFDOWN FLUX  DIRDOWN FLUX  DOWNWARD FLUX   NET FLUX    HEATING RATE
          mb          W/m2          W/m2          W/m2        W/m2          W/m2       degree/day
  60   .000300       16.7519        0.0000      133.0172      133.0172     116.265298       0.00000
  59    0.1000       16.7515        0.0005      133.0095      133.0100     116.258457       0.57906
  58    0.1403       16.7514        0.0007      133.0064      133.0071     116.255681       0.58128
  57    0.1968       16.7513        0.0009      133.0021      133.0030     116.251786       0.58187
  56    0.2760       16.7511        0.0013      132.9962      132.9975     116.246418       0.57198
  55    0.3871       16.7508        0.0018      132.9880      132.9898     116.239015       0.56234
  54    0.5430       16.7504        0.0025      132.9769      132.9794     116.228993       0.54250
  53    0.7617       16.7501        0.0036      132.9618      132.9654     116.215336       0.52699
  52     1.069       16.7497        0.0050      132.9413      132.9463     116.196588       0.51571
  51     1.499       16.7495        0.0070      132.9135      132.9205     116.171006       0.50171
  50     2.102       16.7498        0.0098      132.8748      132.8846     116.134826       0.50585
  49     2.949       16.7514        0.0137      132.8176      132.8313     116.079905       0.54747
  48     4.137       16.7551        0.0192      132.7325      132.7518     115.996658       0.59155
  47     5.803       16.7614        0.0270      132.6115      132.6384     115.877065       0.60583
  46     8.139       16.7698        0.0377      132.4493      132.4871     115.717301       0.57700
  45     11.42       16.7791        0.0528      132.2424      132.2952     115.516094       0.51803
  44     16.01       16.7885        0.0738      131.9828      132.0566     115.268067       0.45526
  43     22.46       16.7965        0.1032      131.6592      131.7624     114.965929       0.39536
  42     31.51       16.7987        0.1442      131.2747      131.4189     114.620190       0.32253
  41     44.20       16.7875        0.2017      130.8450      131.0467     114.259194       0.24008
  40     62.00       16.7567        0.2816      130.3669      130.6485     113.891721       0.17422
  39     85.78       16.6967        0.3880      129.8828      130.2709     113.574161       0.11272
  38     109.5       16.6286        0.4963      129.4797      129.9760     113.347387       0.08050
  37     133.1       16.5597        0.6002      129.1217      129.7220     113.162217       0.06650
  36     156.8       16.4909        0.7010      128.7892      129.4902     112.999329       0.05776
  35     180.6       16.4153        0.8078      128.4511      129.2589     112.843592       0.05529
  34     202.8       16.3403        0.9103      128.1377      129.0481     112.707786       0.05156
  33     228.4       16.2626        1.0146      127.8216      128.8362     112.573567       0.04428
  32     252.2       16.1842        1.1189      127.5049      128.6238     112.439624       0.04754
  31     276.0       16.1060        1.2216      127.1922      128.4138     112.307726       0.04682
  30     299.8       16.0269        1.3248      126.8751      128.1999     112.172971       0.04783
  29     323.5       15.9477        1.4279      126.5537      127.9816     112.033872       0.04937
  28     347.3       15.8693        1.5297      126.2298      127.7595     111.890126       0.05102
  27     371.1       15.7922        1.6299      125.9047      127.5346     111.742422       0.05243
  26     394.9       15.7144        1.7311      125.5688      127.2999     111.585538       0.05569
  25     418.6       15.6373        1.8316      125.2257      127.0574     111.420112       0.05872
  24     442.4       15.5610        1.9317      124.8736      126.8053     111.244294       0.06241
  23     466.2       15.4852        2.0315      124.5111      126.5426     111.057322       0.06637
  22     489.9       15.4113        2.1297      124.1420      126.2717     110.860405       0.06990
  21     513.7       15.3381        2.2279      123.7577      125.9855     110.647409       0.07560
  20     537.5       15.2670        2.3245      123.3614      125.6860     110.418924       0.08110
  19     561.3       15.1982        2.4198      122.9509      125.3707     110.172453       0.08749
  18     585.0       15.1302        2.5156      122.5175      125.0331     109.902912       0.09568
  17     608.8       15.0646        2.6097      122.0752      124.6849     109.620365       0.10029
  16     632.6       15.0014        2.7022      121.6228      124.3250     109.323522       0.10537
  15     656.4       14.9400        2.7946      121.1473      123.9420     109.002003       0.11413
  14     680.1       14.8821        2.8852      120.6531      123.5383     108.656181       0.12275
  13     703.9       14.8284        2.9737      120.1376      123.1112     108.282829       0.13252
  12     727.7       14.7788        3.0613      119.5892      122.6505     107.871665       0.14595
  11     751.5       14.7345        3.1479      119.0038      122.1517     107.417241       0.16130
  10     775.2       14.6970        3.2322      118.3848      121.6170     106.919949       0.17652
   9     799.0       14.6678        3.3139      117.7284      121.0423     106.374469       0.19362
   8     822.8       12.4734        5.8885      112.3766      118.2650     105.791654       0.20688
   7     846.6       10.2912        8.2476      107.2582      115.5058     105.214617       0.20482
   6     870.4        8.1201       10.4053      102.3683      112.7736     104.653452       0.19919
   5     894.1        5.9579       12.3630       97.6983      110.0613     104.103353       0.19526
   4     917.9        5.9039       12.3638       97.0927      109.4565     103.552610       0.19549
   3     941.7        5.8522       12.3632       96.4795      108.8427     102.990515       0.19952
   2     965.5        5.8033       12.3610       95.8637      108.2246     102.421310       0.20204
   1     989.2        5.7577       12.3574       95.2461      107.6035     101.845832       0.20423
   0    1013.0        5.7155       12.3524       94.6273      106.9796     101.264151       0.20652



 Wavenumbers: 16000. - 22650. cm-1, ATM      1
 LEVEL PRESSURE   UPWARD FLUX   DIFDOWN FLUX  DIRDOWN FLUX  DOWNWARD FLUX   NET FLUX    HEATING RATE
          mb          W/m2          W/m2          W/m2        W/m2          W/m2       degree/day
  60   .000300       40.5523        0.0000      212.0812      212.0812     171.528831       0.00000
  59    0.1000       40.5507        0.0026      212.0760      212.0787     171.527984       0.07174
  58    0.1403       40.5501        0.0037      212.0737      212.0774     171.527305       0.14219
  57    0.1968       40.5493        0.0052      212.0701      212.0753     171.526077       0.18344
  56    0.2760       40.5482        0.0073      212.0648      212.0721     171.523917       0.23011
  55    0.3871       40.5468        0.0102      212.0569      212.0671     171.520276       0.27656
  54    0.5430       40.5450        0.0143      212.0449      212.0592     171.514171       0.33046
  53    0.7617       40.5430        0.0201      212.0263      212.0464     171.503399       0.41567
  52     1.069       40.5407        0.0282      211.9965      212.0248     171.484035       0.53265
  51     1.499       40.5389        0.0395      211.9488      211.9883     171.449371       0.67983
  50     2.102       40.5391        0.0552      211.8701      211.9253     171.386138       0.88408
  49     2.949       40.5442        0.0774      211.7353      211.8126     171.268468       1.17297
  48     4.137       40.5578        0.1084      211.5152      211.6237     171.065863       1.43972
  47     5.803       40.5816        0.1518      211.1861      211.3379     170.756342       1.56798
  46     8.139       40.6131        0.2124      210.7354      210.9478     170.334738       1.52265
  45     11.42       40.6470        0.2971      210.1559      210.4529     169.805971       1.36138
  44     16.01       40.6783        0.4151      209.4264      209.8414     169.163193       1.17983
  43     22.46       40.6998        0.5798      208.5155      209.0953     168.395473       1.00459
  42     31.51       40.6915        0.8097      207.4281      208.2378     167.546251       0.79221
  41     44.20       40.6177        1.1308      206.1997      207.3305     166.712782       0.55429
  40     62.00       40.4493        1.5760      204.7997      206.3757     165.926381       0.37284
  39     85.78       40.1429        2.1665      203.3150      205.4815     165.338626       0.20863
  38     109.5       39.7864        2.7619      202.0234      204.7853     164.998829       0.12061
  37     133.1       39.4313        3.3300      200.8408      204.1709     164.739595       0.09309
  36     156.8       39.0790        3.8782      199.7260      203.6042     164.525161       0.07604
  35     180.6       38.6960        4.4561      198.5859      203.0420     164.346049       0.06359
  34     202.8       38.3188        5.0083      197.5309      202.5391     164.220348       0.04773
  33     228.4       37.9297        5.5670      196.4789      202.0459     164.116192       0.03436
  32     252.2       37.5368        6.1227      195.4408      201.5636     164.026752       0.03175
  31     276.0       37.1457        6.6676      194.4310      201.0986     163.952872       0.02622
  30     299.8       36.7493        7.2124      193.4267      200.6391     163.889772       0.02240
  29     323.5       36.3509        7.7540      192.4286      200.1826     163.831652       0.02063
  28     347.3       35.9550        8.2865      191.4464      199.7329     163.777914       0.01907
  27     371.1       35.5631        8.8080      190.4836      199.2916     163.728465       0.01755
  26     394.9       35.1649        9.3326      189.5132      198.8459     163.680956       0.01686
  25     418.6       34.7670        9.8518      188.5503      198.4021     163.635045       0.01630
  24     442.4       34.3688       10.3663      187.5927      197.9589     163.590088       0.01596
  23     466.2       33.9691       10.8779      186.6371      197.5149     163.545864       0.01570
  22     489.9       33.5732       11.3796      185.6961      197.0757     163.502515       0.01539
  21     513.7       33.1746       11.8802      184.7529      196.6331     163.458492       0.01563
  20     537.5       32.7793       12.3720      183.8209      196.1929     163.413617       0.01593
  19     561.3       32.3868       12.8561      182.8981      195.7541     163.367323       0.01643
  18     585.0       31.9886       13.3428      181.9641      195.3070     163.318373       0.01738
  17     608.8       31.5940       13.8208      181.0409      194.8617     163.267684       0.01799
  16     632.6       31.2029       14.2902      180.1276      194.4179     163.214917       0.01873
  15     656.4       30.8075       14.7608      179.2047      193.9656     163.158079       0.02017
  14     680.1       30.4157       15.2232      178.2893      193.5125     163.096871       0.02173
  13     703.9       30.0275       15.6775      177.3803      193.0578     163.030334       0.02362
  12     727.7       29.6372       16.1305      176.4629      192.5934     162.956201       0.02631
  11     751.5       29.2451       16.5821      175.5353      192.1173     162.872208       0.02981
  10     775.2       28.8563       17.0267      174.6074      191.6341     162.777807       0.03351
   9     799.0       28.4709       17.4641      173.6783      191.1425     162.671573       0.03771
   8     822.8       24.7697       21.4613      165.8630      187.3243     162.554654       0.04150
   7     846.6       21.0825       25.1232      158.3955      183.5187     162.436130       0.04207
   6     870.4       17.4107       28.4633      151.2649      179.7282     162.317537       0.04210
   5     894.1       13.7532       31.4968      144.4561      175.9529     162.199713       0.04182
   4     917.9       13.3653       31.7835      143.6609      175.4444     162.079112       0.04281
   3     941.7       12.9769       32.0663      142.8643      174.9305     161.953682       0.04452
   2     965.5       12.5910       32.3431      142.0724      174.4155     161.824466       0.04587
   1     989.2       12.2076       32.6141      141.2854      173.8995     161.691882       0.04705
   0    1013.0       11.8267       32.8794      140.5034      173.3829     161.556182       0.04818



 Wavenumbers: 22650. - 29000. cm-1, ATM      1
 LEVEL PRESSURE   UPWARD FLUX   DIFDOWN FLUX  DIRDOWN FLUX  DOWNWARD FLUX   NET FLUX    HEATING RATE
          mb          W/m2          W/m2          W/m2        W/m2          W/m2       degree/day
  60   .000300       25.6331        0.0000       80.0317       80.0317      54.398591       0.00000
  59    0.1000       25.6314        0.0033       80.0267       80.0300      54.398591       0.00000
  58    0.1403       25.6307        0.0046       80.0247       80.0293      54.398591      -0.00000
  57    0.1968       25.6297        0.0065       80.0218       80.0283      54.398591       0.00000
  56    0.2760       25.6283        0.0091       80.0178       80.0269      54.398591       0.00000
  55    0.3871       25.6264        0.0128       80.0122       80.0249      54.398591       0.00000
  54    0.5430       25.6236        0.0179       80.0043       80.0222      54.398591      -0.00000
  53    0.7617       25.6198        0.0251       79.9933       80.0184      54.398591       0.00000
  52     1.069       25.6145        0.0352       79.9778       80.0130      54.398591      -0.00000
  51     1.499       25.6070        0.0493       79.9562       80.0056      54.398591       0.00000
  50     2.102       25.5966        0.0689       79.9263       79.9952      54.398591      -0.00000
  49     2.949       25.5819        0.0966       79.8839       79.9805      54.398591       0.00000
  48     4.137       25.5612        0.1354       79.8244       79.9598      54.398591      -0.00000
  47     5.803       25.5323        0.1897       79.7412       79.9309      54.398591       0.00000
  46     8.139       25.4919        0.2656       79.6249       79.8905      54.398591      -0.00000
  45     11.42       25.4352        0.3715       79.4623       79.8338      54.398591      -0.00000
  44     16.01       25.3560        0.5193       79.2352       79.7545      54.398591      -0.00000
  43     22.46       25.2448        0.7254       78.9179       79.6434      54.398591       0.00000
  42     31.51       25.0889        1.0124       78.4751       79.4875      54.398591      -0.00000
  41     44.20       24.8700        1.4113       77.8573       79.2686      54.398591       0.00000
  40     62.00       24.5648        1.9595       77.0038       78.9634      54.398591      -0.00000
  39     85.78       24.1576        2.6769       75.8793       78.5561      54.398591       0.00000
  38     109.5       23.7441        3.3888       74.7539       78.1427      54.398591       0.00000
  37     133.1       23.3465        4.0582       73.6869       77.7451      54.398591       0.00000
  36     156.8       22.9599        4.6947       72.6637       77.3585      54.398591       0.00000
  35     180.6       22.5492        5.3557       71.5922       76.9478      54.398591       0.00000
  34     202.8       22.1541        5.9770       70.5757       76.5527      54.398591      -0.00000
  33     228.4       21.7513        6.5957       69.5542       76.1499      54.398591       0.00000
  32     252.2       21.3476        7.2013       68.5449       75.7462      54.398591       0.00000
  31     276.0       20.9488        7.7855       67.5619       75.3474      54.398591       0.00000
  30     299.8       20.5469        8.3600       66.5855       74.9455      54.398591      -0.00000
  29     323.5       20.1443        8.9217       65.6212       74.5429      54.398591       0.00000
  28     347.3       19.7453        9.4647       64.6791       74.1438      54.398591       0.00000
  27     371.1       19.3513        9.9877       63.7621       73.7499      54.398591       0.00000
  26     394.9       18.9518       10.5049       62.8455       73.3504      54.398591       0.00000
  25     418.6       18.5532       11.0079       61.9439       72.9518      54.398591       0.00000
  24     442.4       18.1549       11.4977       61.0558       72.5535      54.398591       0.00000
  23     466.2       17.7556       11.9761       60.1781       72.1541      54.398591      -0.00000
  22     489.9       17.3606       12.4369       59.3223       71.7592      54.398591      -0.00000
  21     513.7       16.9631       12.8883       58.4735       71.3617      54.398591       0.00000
  20     537.5       16.5692       13.3237       57.6441       70.9678      54.398591       0.00000
  19     561.3       16.1782       13.7443       56.8325       70.5768      54.398591      -0.00000
  18     585.0       15.7815       14.1594       56.0207       70.1801      54.398591       0.00000
  17     608.8       15.3884       14.5592       55.2278       69.7870      54.398591       0.00000
  16     632.6       14.9988       14.9443       54.4531       69.3974      54.398591      -0.00000
  15     656.4       14.6047       15.3228       53.6804       69.0033      54.398591       0.00000
  14     680.1       14.2137       15.6874       52.9249       68.6123      54.398591       0.00000
  13     703.9       13.8259       16.0386       52.1859       68.2245      54.398591       0.00000
  12     727.7       13.4352       16.3818       51.4520       67.8338      54.398591      -0.00000
  11     751.5       13.0416       16.7170       50.7232       67.4402      54.398591      -0.00000
  10     775.2       12.6499       17.0403       50.0082       67.0485      54.398591      -0.00000
   9     799.0       12.2600       17.3519       49.3067       66.6586      54.398591       0.00000
   8     822.8       10.7718       18.4963       46.6741       65.1704      54.398587       0.00000
   7     846.6        9.2889       19.5049       44.1826       63.6875      54.398584       0.00000
   6     870.4        7.8130       20.3842       41.8274       62.2115      54.398581       0.00000
   5     894.1        6.3438       21.1404       39.6019       60.7423      54.398578       0.00000
   4     917.9        5.9561       21.3100       39.0447       60.3547      54.398578      -0.00000
   3     941.7        5.5677       21.4718       38.4945       59.9663      54.398578       0.00000
   2     965.5        5.1814       21.6249       37.9550       59.5800      54.398578      -0.00000
   1     989.2        4.7971       21.7695       37.4262       59.1957      54.398578      -0.00000
   0    1013.0        4.4150       21.9058       36.9078       58.8136      54.398578       0.00000



 Wavenumbers: 29000. - 38000. cm-1, ATM      1
 LEVEL PRESSURE   UPWARD FLUX   DIFDOWN FLUX  DIRDOWN FLUX  DOWNWARD FLUX   NET FLUX    HEATING RATE
          mb          W/m2          W/m2          W/m2        W/m2          W/m2       degree/day
  60   .000300        5.7819        0.0000       28.2225       28.2225      22.440651       0.00000
  59    0.1000        5.7800        0.0027       28.1859       28.1886      22.408636       2.70994
  58    0.1403        5.7793        0.0038       28.1585       28.1624      22.383079       5.35185
  57    0.1968        5.7784        0.0054       28.1101       28.1155      22.337152       6.85981
  56    0.2760        5.7772        0.0075       28.0271       28.0346      22.257439       8.49381
  55    0.3871        5.7756        0.0104       27.8913       27.9018      22.126172       9.97102
  54    0.5430        5.7737        0.0145       27.6738       27.6882      21.914592      11.45324
  53    0.7617        5.7714        0.0199       27.3185       27.3384      21.567018      13.41208
  52     1.069        5.7690        0.0270       26.7574       26.7844      21.015408      15.17314
  51     1.499        5.7670        0.0361       25.9466       25.9827      20.215697      15.68412
  50     2.102        5.7668        0.0475       24.8886       24.9360      19.169216      14.63123
  49     2.949        5.7710        0.0623       23.6539       23.7162      17.945194      12.20139
  48     4.137        5.7827        0.0817       22.3800       22.4617      16.679019       8.99750
  47     5.803        5.8036        0.1074       21.1533       21.2607      15.457077       6.19013
  46     8.139        5.8334        0.1419       20.0304       20.1724      14.339025       4.03792
  45     11.42        5.8701        0.1886       19.0179       19.2066      13.336445       2.58128
  44     16.01        5.9137        0.2514       18.0801       18.3315      12.417869       1.68606
  43     22.46        5.9646        0.3364       17.1858       17.5222      11.557535       1.12578
  42     31.51        6.0157        0.4517       16.3448       16.7965      10.780772       0.72461
  41     44.20        6.0487        0.6097       15.5663       16.1760      10.127329       0.43457
  40     62.00        6.0514        0.8237       14.8065       15.6302       9.578789       0.26007
  39     85.78        5.9928        1.1017       14.0925       15.1942       9.201439       0.13394
  38     109.5        5.8972        1.3754       13.5167       14.8921       8.994871       0.07332
  37     133.1        5.7977        1.6262       13.0134       14.6395       8.841869       0.05495
  36     156.8        5.6974        1.8583       12.5564       14.4148       8.717312       0.04417
  35     180.6        5.5852        2.0948       12.1053       14.2001       8.614909       0.03635
  34     202.8        5.4710        2.3133       11.7016       14.0149       8.543844       0.02698
  33     228.4        5.3518        2.5261       11.3112       13.8373       8.485528       0.01924
  32     252.2        5.2309        2.7296       10.9372       13.6669       8.435965       0.01759
  31     276.0        5.1098        2.9215       10.5839       13.5054       8.395557       0.01434
  30     299.8        4.9866        3.1058       10.2424       13.3483       8.361622       0.01205
  29     323.5        4.8629        3.2813        9.9126       13.1939       8.331057       0.01085
  28     347.3        4.7400        3.4463        9.5973       13.0436       8.303558       0.00976
  27     371.1        4.6185        3.6010        9.2967       12.8976       8.279096       0.00868
  26     394.9        4.4952        3.7496        9.0022       12.7518       8.256568       0.00800
  25     418.6        4.3721        3.8898        8.7182       12.6080       8.235825       0.00736
  24     442.4        4.2491        4.0221        8.4437       12.4658       8.216668       0.00680
  23     466.2        4.1258        4.1473        8.1775       12.3248       8.199036       0.00626
  22     489.9        4.0037        4.2639        7.9229       12.1867       8.182995       0.00569
  21     513.7        3.8810        4.3741        7.6749       12.0490       8.168013       0.00532
  20     537.5        3.7594        4.4766        7.4369       11.9135       8.154083       0.00494
  19     561.3        3.6388        4.5719        7.2080       11.7798       8.141087       0.00461
  18     585.0        3.5165        4.6620        6.9831       11.6451       8.128636       0.00442
  17     608.8        3.3954        4.7452        6.7672       11.5123       8.116944       0.00415
  16     632.6        3.2755        4.8216        6.5598       11.3814       8.105949       0.00390
  15     656.4        3.1543        4.8931        6.3565       11.2496       8.095389       0.00375
  14     680.1        3.0341        4.9584        6.1611       11.1196       8.085437       0.00353
  13     703.9        2.9150        5.0179        5.9732       10.9911       8.076047       0.00333
  12     727.7        2.7951        5.0725        5.7897       10.8622       8.067051       0.00319
  11     751.5        2.6744        5.1223        5.6105       10.7328       8.058439       0.00306
  10     775.2        2.5544        5.1669        5.4377       10.6047       8.050296       0.00289
   9     799.0        2.4349        5.2065        5.2710       10.4775       8.042592       0.00273
   8     822.8        2.1557        5.2862        4.9048       10.1910       8.035247       0.00261
   7     846.6        1.8774        5.3417        4.5641        9.9058       8.028379       0.00244
   6     870.4        1.6007        5.3755        4.2472        9.6227       8.021999       0.00226
   5     894.1        1.3254        5.3876        3.9539        9.3415       8.016077       0.00210
   4     917.9        1.2063        5.3847        3.8321        9.2168       8.010460       0.00199
   3     941.7        1.0870        5.3783        3.7138        9.0921       8.005072       0.00191
   2     965.5        0.9684        5.3687        3.5997        8.9684       7.999948       0.00182
   1     989.2        0.8505        5.3558        3.4898        8.8456       7.995074       0.00173
   0    1013.0        0.7333        5.3400        3.3837        8.7237       7.990436       0.00165



 Wavenumbers: 38000. - 50000. cm-1, ATM      1
 LEVEL PRESSURE   UPWARD FLUX   DIFDOWN FLUX  DIRDOWN FLUX  DOWNWARD FLUX   NET FLUX    HEATING RATE
          mb          W/m2          W/m2          W/m2        W/m2          W/m2       degree/day
  60   .000300        0.0069        0.0000        1.7407        1.7407       1.733864       0.00000
  59    0.1000        0.0063        0.0006        1.7198        1.7204       1.714069       1.67562
  58    0.1403        0.0061        0.0008        1.7047        1.7056       1.699408       3.07012
  57    0.1968        0.0059        0.0012        1.6784        1.6796       1.673683       3.84232
  56    0.2760        0.0056        0.0016        1.6341        1.6357       1.630132       4.64062
  55    0.3871        0.0051        0.0021        1.5634        1.5655       1.560405       5.29648
  54    0.5430        0.0046        0.0028        1.4543        1.4571       1.452495       5.84133
  53    0.7617        0.0039        0.0034        1.2861        1.2895       1.285598       6.44019
  52     1.069        0.0031        0.0037        1.0457        1.0495       1.046342       6.58121
  51     1.499        0.0024        0.0037        0.7523        0.7559       0.753565       5.74202
  50     2.102        0.0017        0.0031        0.4664        0.4695       0.467843       3.99478
  49     2.949        0.0012        0.0024        0.2581        0.2604       0.259286       2.07895
  48     4.137        0.0008        0.0017        0.1381        0.1398       0.139011       0.85468
  47     5.803        0.0005        0.0013        0.0728        0.0741       0.073572       0.33150
  46     8.139        0.0003        0.0009        0.0388        0.0397       0.039349       0.12360
  45     11.42        0.0002        0.0006        0.0198        0.0204       0.020194       0.04932
  44     16.01        0.0001        0.0004        0.0090        0.0093       0.009236       0.02011
  43     22.46        0.0000        0.0002        0.0034        0.0036       0.003591       0.00739
  42     31.51        0.0000        0.0001        0.0011        0.0012       0.001179       0.00225
  41     44.20        0.0000        0.0000        0.0003        0.0003       0.000327       0.00057
  40     62.00        0.0000        0.0000        0.0001        0.0001       0.000070       0.00012
  39     85.78        0.0000        0.0000        0.0000        0.0000       0.000012       0.00002
  38     109.5        0.0000        0.0000        0.0000        0.0000       0.000002       0.00000
  37     133.1        0.0000        0.0000        0.0000        0.0000       0.000000       0.00000
  36     156.8        0.0000        0.0000        0.0000        0.0000       0.000000       0.00000
  35     180.6        0.0000        0.0000        0.0000        0.0000       0.000000       0.00000
  34     202.8        0.0000        0.0000        0.0000        0.0000       0.000000       0.00000
  33     228.4        0.0000        0.0000        0.0000        0.0000       0.000000       0.00000
  32     252.2        0.0000        0.0000        0.0000        0.0000       0.000000       0.00000
  31     276.0        0.0000        0.0000        0.0000        0.0000       0.000000       0.00000
  30     299.8        0.0000        0.0000        0.0000        0.0000       0.000000       0.00000
  29     323.5        0.0000        0.0000        0.0000        0.0000       0.000000       0.00000
  28     347.3        0.0000        0.0000        0.0000        0.0000       0.000000       0.00000
  27     371.1        0.0000        0.0000        0.0000        0.0000       0.000000       0.00000
  26     394.9        0.0000        0.0000        0.0000        0.0000       0.000000       0.00000
  25     418.6        0.0000        0.0000        0.0000        0.0000       0.000000       0.00000
  24     442.4        0.0000        0.0000        0.0000        0.0000       0.000000       0.00000
  23     466.2        0.0000        0.0000        0.0000        0.0000       0.000000       0.00000
  22     489.9        0.0000        0.0000        0.0000        0.0000       0.000000       0.00000
  21     513.7        0.0000        0.0000        0.0000        0.0000       0.000000       0.00000
  20     537.5        0.0000        0.0000        0.0000        0.0000       0.000000       0.00000
  19     561.3        0.0000        0.0000        0.0000        0.0000       0.000000       0.00000
  18     585.0        0.0000        0.0000        0.0000        0.0000       0.000000       0.00000
  17     608.8        0.0000        0.0000        0.0000        0.0000       0.000000       0.00000
  16     632.6        0.0000        0.0000        0.0000        0.0000       0.000000       0.00000
  15     656.4        0.0000        0.0000        0.0000        0.0000       0.000000       0.00000
  14     680.1        0.0000        0.0000        0.0000        0.0000       0.000000       0.00000
  13     703.9        0.0000        0.0000        0.0000        0.0000       0.000000       0.00000
  12     727.7        0.0000        0.0000        0.0000        0.0000       0.000000       0.00000
  11     751.5        0.0000        0.0000        0.0000        0.0000       0.000000       0.00000
  10     775.2        0.0000        0.0000        0.0000        0.0000       0.000000       0.00000
   9     799.0        0.0000        0.0000        0.0000        0.0000       0.000000       0.00000
   8     822.8        0.0000        0.0000        0.0000        0.0000       0.000000       0.00000
   7     846.6        0.0000        0.0000        0.0000        0.0000       0.000000       0.00000
   6     870.4        0.0000        0.0000        0.0000        0.0000       0.000000       0.00000
   5     894.1        0.0000        0.0000        0.0000        0.0000       0.000000       0.00000
   4     917.9        0.0000        0.0000        0.0000        0.0000       0.000000       0.00000
   3     941.7        0.0000        0.0000        0.0000        0.0000       0.000000       0.00000
   2     965.5        0.0000        0.0000        0.0000        0.0000       0.000000       0.00000
   1     989.2        0.0000        0.0000        0.0000        0.0000       0.000000       0.00000
   0    1013.0        0.0000        0.0000        0.0000        0.0000       0.000000       0.00000



 Wavenumbers:   820. -  2600. cm-1, ATM      1
 LEVEL PRESSURE   UPWARD FLUX   DIFDOWN FLUX  DIRDOWN FLUX  DOWNWARD FLUX   NET FLUX    HEATING RATE
          mb          W/m2          W/m2          W/m2        W/m2          W/m2       degree/day
  60   .000300        0.1945        0.0000        8.1430        8.1430       7.948447       0.00000
  59    0.1000        0.1945        0.0000        8.1331        8.1331       7.938560       0.83685
  58    0.1403        0.1945        0.0000        8.1309        8.1309       7.936422       0.44784
  57    0.1968        0.1945        0.0000        8.1281        8.1281       7.933582       0.42419
  56    0.2760        0.1945        0.0000        8.1245        8.1245       7.930015       0.38009
  55    0.3871        0.1945        0.0000        8.1201        8.1201       7.925554       0.33884
  54    0.5430        0.1945        0.0000        8.1143        8.1143       7.919798       0.31157
  53    0.7617        0.1945        0.0000        8.1063        8.1063       7.911812       0.30815
  52     1.069        0.1945        0.0000        8.0951        8.0951       7.900565       0.30939
  51     1.499        0.1945        0.0000        8.0799        8.0799       7.885375       0.29789
  50     2.102        0.1945        0.0000        8.0595        8.0595       7.864965       0.28537
  49     2.949        0.1945        0.0000        8.0314        8.0314       7.836827       0.28049
  48     4.137        0.1945        0.0000        7.9935        7.9935       7.798981       0.26894
  47     5.803        0.1945        0.0000        7.9444        7.9444       7.749860       0.24884
  46     8.139        0.1945        0.0000        7.8811        7.8811       7.686584       0.22853
  45     11.42        0.1945        0.0000        7.8004        7.8004       7.605860       0.20783
  44     16.01        0.1945        0.0000        7.7070        7.7070       7.512506       0.17135
  43     22.46        0.1945        0.0000        7.6181        7.6181       7.423535       0.11642
  42     31.51        0.1946        0.0000        7.5468        7.5468       7.352261       0.06649
  41     44.20        0.1946        0.0000        7.4816        7.4816       7.287069       0.04336
  40     62.00        0.1946        0.0000        7.3998        7.3998       7.205248       0.03879
  39     85.78        0.1946        0.0000        7.2958        7.2958       7.101206       0.03693
  38     109.5        0.1946        0.0000        7.1946        7.1946       7.000007       0.03592
  37     133.1        0.1947        0.0000        7.1003        7.1003       6.905620       0.03390
  36     156.8        0.1947        0.0000        7.0126        7.0126       6.817957       0.03109
  35     180.6        0.1947        0.0000        6.9166        6.9166       6.721878       0.03411
  34     202.8        0.1948        0.0000        6.8041        6.8042       6.609416       0.04270
  33     228.4        0.1948        0.0000        6.6630        6.6630       6.468215       0.04659
  32     252.2        0.1949        0.0000        6.4917        6.4917       6.296817       0.06084
  31     276.0        0.1950        0.0000        6.3090        6.3091       6.114121       0.06485
  30     299.8        0.1951        0.0000        6.1153        6.1153       5.920241       0.06882
  29     323.5        0.1952        0.0000        5.9197        5.9197       5.724476       0.06949
  28     347.3        0.1955        0.0000        5.7036        5.7036       5.508127       0.07679
  27     371.1        0.1957        0.0000        5.4648        5.4649       5.269125       0.08484
  26     394.9        0.1961        0.0000        5.2059        5.2060       5.009912       0.09201
  25     418.6        0.1965        0.0000        4.9521        4.9521       4.755643       0.09025
  24     442.4        0.1969        0.0000        4.7233        4.7233       4.526434       0.08136
  23     466.2        0.1974        0.0000        4.5370        4.5370       4.339588       0.06632
  22     489.9        0.1980        0.0000        4.3924        4.3925       4.194457       0.05152
  21     513.7        0.1987        0.0000        4.2764        4.2764       4.077699       0.04144
  20     537.5        0.1996        0.0000        4.1775        4.1776       3.977987       0.03539
  19     561.3        0.2006        0.0000        4.0839        4.0840       3.883421       0.03357
  18     585.0        0.2017        0.0000        3.9882        3.9883       3.786549       0.03439
  17     608.8        0.2031        0.0000        3.8907        3.8907       3.687648       0.03511
  16     632.6        0.2047        0.0000        3.7911        3.7912       3.586503       0.03590
  15     656.4        0.2066        0.0000        3.6867        3.6868       3.480221       0.03773
  14     680.1        0.2088        0.0000        3.5795        3.5795       3.370707       0.03887
  13     703.9        0.2116        0.0000        3.4709        3.4710       3.259419       0.03950
  12     727.7        0.2150        0.0000        3.3598        3.3599       3.144893       0.04065
  11     751.5        0.2194        0.0000        3.2443        3.2443       3.024917       0.04259
  10     775.2        0.2252        0.0000        3.1256        3.1256       2.900442       0.04418
   9     799.0        0.2327        0.0000        3.0033        3.0033       2.770570       0.04610
   8     822.8        0.1859        0.0611        2.7634        2.8245       2.638598       0.04684
   7     846.6        0.1398        0.1039        2.5428        2.6468       2.506957       0.04673
   6     870.4        0.0952        0.1478        2.3399        2.4877       2.392519       0.04062
   5     894.1        0.0509        0.1834        2.1509        2.3343       2.283408       0.03873
   4     917.9        0.0530        0.1742        2.0551        2.2293       2.176289       0.03802
   3     941.7        0.0555        0.1649        1.9587        2.1236       2.068111       0.03840
   2     965.5        0.0584        0.1557        1.8618        2.0175       1.959086       0.03870
   1     989.2        0.0619        0.1466        1.7647        1.9113       1.849425       0.03892
   0    1013.0        0.0661        0.1376        1.6681        1.8057       1.739613       0.03899

  Modules and versions used in this calculation:

       rrtmg_sw.1col.f90:  $Revision$                    rrtmg_sw_init.f90:  $Revision$        
     rrtmgsw_cldprop.f90:  $Revision$                  rrtmgsw_cldprmc.f90:  NOT USED          
     rrtmg_sw_reftra.f90:  $Revision$                  rrtmg_sw_spcvrt.f90:  NOT USED          
     rrtmg_sw_spcvmc.f90:  NOT USED                    rrtmgsw_setcoef.f90:  NOT USED          
     rrtmg_sw_taumol.f90:  $Revision$                  rrtmg_sw_vrtqdr.f90:  NOT USED          
                rrtatm.f:  NOT USED                             util_xxx.f:  NOT USED          
                 extra.f:  NOT USED                       rrtmg_sw_k_g.f90:  $Revision$        

