

 Wavenumbers:   820. - 50000. cm-1, ATM      1
 LEVEL PRESSURE   UPWARD FLUX   DIFDOWN FLUX  DIRDOWN FLUX  DOWNWARD FLUX   NET FLUX    HEATING RATE
          mb          W/m2          W/m2          W/m2        W/m2          W/m2       degree/day
  60   .000300      191.8571        0.0000      837.8224      837.8224     645.965314       0.00000
  59    0.1000      191.8513        0.0104      837.7137      837.7241     645.872764       7.83387
  58    0.1403      191.8492        0.0146      837.6563      837.6710     645.821727      10.68762
  57    0.1968      191.8464        0.0205      837.5614      837.5819     645.735487      12.88132
  56    0.2760      191.8428        0.0287      837.4070      837.4357     645.592936      15.18947
  55    0.3871      191.8381        0.0401      837.1641      837.2042     645.366106      17.23002
  54    0.5430      191.8321        0.0558      836.7876      836.8434     645.011353      19.20339
  53    0.7617      191.8250        0.0773      836.1942      836.2714     644.446392      21.80061
  52     1.069      191.8176        0.1067      835.2926      835.3993     643.581655      23.78631
  51     1.499      191.8118        0.1461      834.0471      834.1932     642.381427      23.53915
  50     2.102      191.8121        0.1991      832.4995      832.6986     640.886524      20.90077
  49     2.949      191.8274        0.2729      830.7483      831.0212     639.193876      16.87279
  48     4.137      191.8686        0.3755      828.8944      829.2699     637.401354      12.73775
  47     5.803      191.9408        0.5177      826.9459      827.4637     635.522878       9.51602
  46     8.139      192.0389        0.7154      824.8978      825.6133     633.574324       7.03733
  45     11.42      192.1504        0.9903      822.7006      823.6908     631.540412       5.23659
  44     16.01      192.2651        1.3716      820.2525      821.6240     629.358900       4.00420
  43     22.46      192.3699        1.9014      817.4463      819.3477     626.977825       3.11572
  42     31.51      192.4163        2.6374      814.2518      816.8891     624.472801       2.33684
  41     44.20      192.3135        3.6615      810.6480      814.3095     621.996008       1.64716
  40     62.00      191.9903        5.0728      806.4553      811.5282     619.537922       1.16541
  39     85.78      191.3250        6.9313      801.7674      808.6987     617.373656       0.76823
  38     109.5      190.5244        8.7900      797.4817      806.2717     615.747329       0.57728
  37     133.1      189.7205       10.5455      793.5510      804.0965     614.375938       0.49248
  36     156.8      188.9211       12.2222      789.8548      802.0770     613.155934       0.43261
  35     180.6      188.0472       13.9736      786.0084      799.9820     611.934744       0.43354
  34     202.8      187.1820       15.6313      782.2124      797.8437     610.661673       0.48336
  33     228.4      186.2884       17.2925      778.0467      795.3392     609.050798       0.53149
  32     252.2      185.3865       18.9283      773.4741      792.4024     607.015941       0.72229
  31     276.0      184.4897       20.5166      768.4389      788.9555     604.465779       0.90520
  30     299.8      183.5831       22.0891      762.7642      784.8533     601.270205       1.13430
  29     323.5      182.6758       23.6364      756.6288      780.2652     597.589344       1.30655
  28     347.3      181.7796       25.1424      750.2254      775.3679     593.588243       1.42023
  27     371.1      180.8982       26.6030      743.7251      770.3281     589.429825       1.47607
  26     394.9      180.0098       28.0574      736.8957      764.9531     584.943317       1.59253
  25     418.6      179.1307       29.4819      729.8721      759.3540     580.223289       1.67542
  24     442.4      178.2615       30.8793      722.6783      753.5575     575.296024       1.74898
  23     466.2      177.4002       32.2546      715.4381      747.6927     570.292484       1.77605
  22     489.9      176.5608       33.5897      708.2772      741.8668     565.306031       1.76999
  21     513.7      175.7321       34.9080      701.0441      735.9521     560.219975       1.80534
  20     537.5      174.9302       36.1898      693.8325      730.0223     555.092039       1.82021
  19     561.3      174.1575       37.4381      686.6319      724.0700     549.912496       1.83852
  18     585.0      173.3995       38.6802      679.3701      718.0503     544.650852       1.86767
  17     608.8      172.6766       39.8872      672.2525      712.1397     539.463064       1.84145
  16     632.6      171.9931       41.0603      665.2624      706.3227     534.329590       1.82217
  15     656.4      171.3442       42.2237      658.1915      700.4151     529.070958       1.86660
  14     680.1      170.7562       43.3540      651.1209      694.4749     523.718767       1.89981
  13     703.9      170.2407       44.4523      644.0582      688.5104     518.269772       1.93417
  12     727.7      169.8086       45.5350      636.8758      682.4109     512.602214       2.01175
  11     751.5      169.4947       46.6015      629.4911      676.0926     506.597872       2.13129
  10     775.2      169.3423       47.6385      621.9804      669.6188     500.276519       2.24382
   9     799.0      169.4068       48.6461      614.3441      662.9902     493.583494       2.37575
   8     822.8      131.6474      399.0677      215.2763      614.3440     482.696564       3.86441
   7     846.6       95.5489      493.7015       75.5228      569.2243     473.675379       3.20215
   6     870.4       60.6735      500.3779       26.5257      526.9036     466.230157       2.64275
   5     894.1       26.6614      477.4647        9.3254      486.7901     460.128717       2.16576
   4     917.9       25.8694      472.9366        9.2223      482.1589     456.289504       1.36276
   3     941.7       25.0853      468.5151        9.1210      477.6361     452.550777       1.32709
   2     965.5       24.3171      464.2180        9.0222      473.2402     448.923121       1.28767
   1     989.2       23.5668      460.0371        8.9257      468.9628     445.395962       1.25173
   0    1013.0       22.8379      455.9619        8.8314      464.7933     441.955353       1.22153



 Wavenumbers:  2600. -  3250. cm-1, ATM      1
 LEVEL PRESSURE   UPWARD FLUX   DIFDOWN FLUX  DIRDOWN FLUX  DOWNWARD FLUX   NET FLUX    HEATING RATE
          mb          W/m2          W/m2          W/m2        W/m2          W/m2       degree/day
  60   .000300        0.1968        0.0000        7.3841        7.3841       7.187246       0.00000
  59    0.1000        0.1968        0.0000        7.3840        7.3840       7.187174       0.00613
  58    0.1403        0.1968        0.0000        7.3840        7.3840       7.187145       0.00614
  57    0.1968        0.1968        0.0000        7.3839        7.3839       7.187103       0.00616
  56    0.2760        0.1968        0.0000        7.3839        7.3839       7.187046       0.00613
  55    0.3871        0.1968        0.0000        7.3838        7.3838       7.186961       0.00641
  54    0.5430        0.1968        0.0000        7.3837        7.3837       7.186836       0.00678
  53    0.7617        0.1968        0.0000        7.3835        7.3835       7.186639       0.00761
  52     1.069        0.1968        0.0000        7.3831        7.3831       7.186309       0.00908
  51     1.499        0.1968        0.0000        7.3825        7.3825       7.185700       0.01193
  50     2.102        0.1968        0.0000        7.3814        7.3814       7.184612       0.01522
  49     2.949        0.1968        0.0000        7.3795        7.3795       7.182726       0.01880
  48     4.137        0.1968        0.0000        7.3765        7.3765       7.179712       0.02142
  47     5.803        0.1968        0.0000        7.3721        7.3721       7.175281       0.02245
  46     8.139        0.1968        0.0000        7.3661        7.3661       7.169274       0.02169
  45     11.42        0.1968        0.0000        7.3586        7.3586       7.161769       0.01932
  44     16.01        0.1968        0.0000        7.3500        7.3500       7.153195       0.01574
  43     22.46        0.1968        0.0000        7.3407        7.3407       7.143882       0.01219
  42     31.51        0.1968        0.0000        7.3297        7.3297       7.132923       0.01022
  41     44.20        0.1968        0.0000        7.3134        7.3134       7.116584       0.01087
  40     62.00        0.1968        0.0000        7.2860        7.2860       7.089199       0.01298
  39     85.78        0.1968        0.0000        7.2438        7.2439       7.047047       0.01496
  38     109.5        0.1968        0.0000        7.1969        7.1969       7.000101       0.01666
  37     133.1        0.1969        0.0000        7.1517        7.1518       6.954926       0.01622
  36     156.8        0.1969        0.0001        7.1092        7.1093       6.912401       0.01508
  35     180.6        0.1969        0.0001        7.0662        7.0663       6.869345       0.01529
  34     202.8        0.1970        0.0001        7.0262        7.0262       6.829271       0.01522
  33     228.4        0.1970        0.0001        6.9846        6.9847       6.787682       0.01372
  32     252.2        0.1971        0.0001        6.9407        6.9408       6.743653       0.01563
  31     276.0        0.1972        0.0001        6.8941        6.8942       6.696987       0.01656
  30     299.8        0.1974        0.0001        6.8424        6.8426       6.645147       0.01840
  29     323.5        0.1976        0.0001        6.7849        6.7850       6.587420       0.02049
  28     347.3        0.1979        0.0001        6.7206        6.7207       6.522840       0.02292
  27     371.1        0.1982        0.0001        6.6496        6.6497       6.451475       0.02533
  26     394.9        0.1986        0.0001        6.5676        6.5677       6.369075       0.02925
  25     418.6        0.1991        0.0001        6.4741        6.4743       6.275120       0.03335
  24     442.4        0.1997        0.0001        6.3671        6.3673       6.167537       0.03819
  23     466.2        0.2005        0.0001        6.2486        6.2487       6.048234       0.04235
  22     489.9        0.2013        0.0002        6.1205        6.1206       5.919317       0.04576
  21     513.7        0.2023        0.0002        5.9812        5.9813       5.779028       0.04980
  20     537.5        0.2035        0.0002        5.8338        5.8340       5.630473       0.05273
  19     561.3        0.2049        0.0002        5.6819        5.6820       5.477116       0.05444
  18     585.0        0.2066        0.0002        5.5274        5.5276       5.321009       0.05541
  17     608.8        0.2085        0.0002        5.3761        5.3762       5.167737       0.05441
  16     632.6        0.2107        0.0002        5.2281        5.2283       5.017568       0.05330
  15     656.4        0.2133        0.0002        5.0791        5.0793       4.865939       0.05382
  14     680.1        0.2164        0.0002        4.9299        4.9300       4.713601       0.05407
  13     703.9        0.2202        0.0002        4.7798        4.7799       4.559763       0.05461
  12     727.7        0.2248        0.0002        4.6253        4.6254       4.400644       0.05648
  11     751.5        0.2307        0.0002        4.4633        4.4634       4.232783       0.05958
  10     775.2        0.2381        0.0002        4.2949        4.2950       4.056894       0.06243
   9     799.0        0.2479        0.0002        4.1205        4.1207       3.872841       0.06533
   8     822.8        0.1511        1.3444        1.2755        2.6199       2.468884       0.49835
   7     846.6        0.0886        1.2551        0.3949        1.6500       1.561410       0.32212
   6     870.4        0.0464        0.9087        0.1224        1.0311       0.984660       0.20472
   5     894.1        0.0147        0.6025        0.0379        0.6405       0.625784       0.12739
   4     917.9        0.0151        0.5757        0.0364        0.6121       0.596973       0.01023
   3     941.7        0.0156        0.5503        0.0349        0.5852       0.569560       0.00973
   2     965.5        0.0162        0.5262        0.0334        0.5597       0.543497       0.00925
   1     989.2        0.0168        0.5035        0.0321        0.5355       0.518696       0.00880
   0    1013.0        0.0176        0.4818        0.0308        0.5125       0.494916       0.00844



 Wavenumbers:  3250. -  4000. cm-1, ATM      1
 LEVEL PRESSURE   UPWARD FLUX   DIFDOWN FLUX  DIRDOWN FLUX  DOWNWARD FLUX   NET FLUX    HEATING RATE
          mb          W/m2          W/m2          W/m2        W/m2          W/m2       degree/day
  60   .000300        0.0020        0.0000       12.4485       12.4485      12.446415       0.00000
  59    0.1000        0.0020        0.0000       12.4290       12.4290      12.426913       1.65079
  58    0.1403        0.0020        0.0000       12.4252       12.4252      12.423198       0.77776
  57    0.1968        0.0020        0.0000       12.4208       12.4208      12.418726       0.66803
  56    0.2760        0.0020        0.0000       12.4156       12.4156      12.413563       0.55013
  55    0.3871        0.0020        0.0000       12.4096       12.4096      12.407530       0.45825
  54    0.5430        0.0020        0.0000       12.4022       12.4022      12.400202       0.39669
  53    0.7617        0.0020        0.0000       12.3928       12.3928      12.390742       0.36506
  52     1.069        0.0020        0.0000       12.3807       12.3807      12.378701       0.33119
  51     1.499        0.0020        0.0000       12.3664       12.3664      12.364344       0.28159
  50     2.102        0.0020        0.0000       12.3498       12.3498      12.347710       0.23256
  49     2.949        0.0020        0.0000       12.3302       12.3302      12.328175       0.19473
  48     4.137        0.0020        0.0000       12.3067       12.3068      12.304710       0.16675
  47     5.803        0.0020        0.0000       12.2766       12.2766      12.274592       0.15257
  46     8.139        0.0020        0.0000       12.2347       12.2348      12.232724       0.15121
  45     11.42        0.0020        0.0000       12.1733       12.1733      12.171311       0.15812
  44     16.01        0.0020        0.0000       12.0830       12.0830      12.081000       0.16577
  43     22.46        0.0020        0.0000       11.9527       11.9527      11.950710       0.17049
  42     31.51        0.0020        0.0000       11.7748       11.7748      11.772825       0.16594
  41     44.20        0.0020        0.0001       11.5551       11.5552      11.553188       0.14607
  40     62.00        0.0020        0.0001       11.3050       11.3051      11.303120       0.11856
  39     85.78        0.0019        0.0001       11.0142       11.0143      11.012332       0.10322
  38     109.5        0.0019        0.0001       10.7175       10.7176      10.715712       0.10529
  37     133.1        0.0019        0.0002       10.4459       10.4460      10.444166       0.09752
  36     156.8        0.0019        0.0002       10.1944       10.1946      10.192778       0.08914
  35     180.6        0.0018        0.0002        9.9218        9.9220       9.920220       0.09676
  34     202.8        0.0018        0.0002        9.5970        9.5973       9.595450       0.12331
  33     228.4        0.0018        0.0002        9.1820        9.1823       9.180513       0.13690
  32     252.2        0.0018        0.0003        8.7004        8.7006       8.698872       0.17096
  31     276.0        0.0017        0.0003        8.1693        8.1695       8.167799       0.18851
  30     299.8        0.0017        0.0003        7.5886        7.5889       7.587148       0.20611
  29     323.5        0.0017        0.0003        6.9823        6.9825       6.980818       0.21522
  28     347.3        0.0017        0.0003        6.3629        6.3631       6.361406       0.21987
  27     371.1        0.0017        0.0002        5.7699        5.7701       5.768430       0.21048
  26     394.9        0.0017        0.0002        5.2041        5.2043       5.202591       0.20085
  25     418.6        0.0017        0.0002        4.6962        4.6964       4.694673       0.18029
  24     442.4        0.0017        0.0002        4.2409        4.2411       4.239391       0.16161
  23     466.2        0.0017        0.0002        3.8328        3.8330       3.831217       0.14489
  22     489.9        0.0018        0.0002        3.4648        3.4650       3.463262       0.13061
  21     513.7        0.0018        0.0002        3.1218        3.1220       3.120169       0.12178
  20     537.5        0.0019        0.0002        2.8040        2.8042       2.802294       0.11283
  19     561.3        0.0020        0.0002        2.5083        2.5084       2.506452       0.10501
  18     585.0        0.0021        0.0001        2.2301        2.2302       2.228148       0.09879
  17     608.8        0.0022        0.0001        1.9731        1.9732       1.970986       0.09128
  16     632.6        0.0024        0.0001        1.7337        1.7338       1.731445       0.08503
  15     656.4        0.0026        0.0001        1.5041        1.5042       1.501573       0.08160
  14     680.1        0.0030        0.0001        1.2888        1.2888       1.285867       0.07657
  13     703.9        0.0034        0.0001        1.0908        1.0908       1.087410       0.07044
  12     727.7        0.0041        0.0001        0.9082        0.9083       0.904157       0.06505
  11     751.5        0.0051        0.0001        0.7390        0.7391       0.733994       0.06040
  10     775.2        0.0066        0.0000        0.5856        0.5857       0.579082       0.05499
   9     799.0        0.0090        0.0000        0.4484        0.4484       0.439389       0.04959
   8     822.8        0.0041        0.1055        0.1099        0.2154       0.211336       0.08095
   7     846.6        0.0018        0.0734        0.0262        0.0996       0.097809       0.04030
   6     870.4        0.0007        0.0382        0.0061        0.0443       0.043641       0.01923
   5     894.1        0.0000        0.0175        0.0014        0.0189       0.018900       0.00878
   4     917.9        0.0000        0.0111        0.0009        0.0119       0.011944       0.00247
   3     941.7        0.0000        0.0067        0.0005        0.0072       0.007202       0.00168
   2     965.5        0.0000        0.0038        0.0003        0.0042       0.004142       0.00109
   1     989.2        0.0000        0.0021        0.0002        0.0023       0.002259       0.00067
   0    1013.0        0.0000        0.0011        0.0001        0.0012       0.001147       0.00040



 Wavenumbers:  4000. -  4650. cm-1, ATM      1
 LEVEL PRESSURE   UPWARD FLUX   DIFDOWN FLUX  DIRDOWN FLUX  DOWNWARD FLUX   NET FLUX    HEATING RATE
          mb          W/m2          W/m2          W/m2        W/m2          W/m2       degree/day
  60   .000300        2.2286        0.0000       14.6183       14.6183      12.389637       0.00000
  59    0.1000        2.2286        0.0000       14.6182       14.6182      12.389628       0.00076
  58    0.1403        2.2286        0.0000       14.6182       14.6182      12.389624       0.00076
  57    0.1968        2.2286        0.0000       14.6182       14.6182      12.389619       0.00077
  56    0.2760        2.2286        0.0000       14.6182       14.6182      12.389612       0.00076
  55    0.3871        2.2286        0.0000       14.6182       14.6182      12.389602       0.00080
  54    0.5430        2.2286        0.0000       14.6182       14.6182      12.389586       0.00085
  53    0.7617        2.2286        0.0000       14.6182       14.6182      12.389561       0.00095
  52     1.069        2.2286        0.0000       14.6181       14.6181      12.389520       0.00114
  51     1.499        2.2286        0.0000       14.6180       14.6181      12.389443       0.00152
  50     2.102        2.2286        0.0000       14.6179       14.6179      12.389302       0.00197
  49     2.949        2.2286        0.0000       14.6176       14.6177      12.389048       0.00252
  48     4.137        2.2286        0.0000       14.6172       14.6172      12.388620       0.00305
  47     5.803        2.2286        0.0000       14.6165       14.6165      12.387928       0.00351
  46     8.139        2.2286        0.0000       14.6154       14.6154      12.386845       0.00391
  45     11.42        2.2286        0.0000       14.6137       14.6138      12.385176       0.00430
  44     16.01        2.2286        0.0001       14.6112       14.6112      12.382647       0.00464
  43     22.46        2.2286        0.0001       14.6074       14.6074      12.378874       0.00494
  42     31.51        2.2286        0.0001       14.6017       14.6018      12.373231       0.00526
  41     44.20        2.2286        0.0002       14.5927       14.5929      12.364317       0.00593
  40     62.00        2.2286        0.0002       14.5788       14.5791      12.350476       0.00656
  39     85.78        2.2287        0.0003       14.5592       14.5596      12.330939       0.00693
  38     109.5        2.2288        0.0004       14.5382       14.5386      12.309817       0.00750
  37     133.1        2.2290        0.0005       14.5177       14.5182      12.289282       0.00737
  36     156.8        2.2292        0.0006       14.4977       14.4983      12.269110       0.00715
  35     180.6        2.2295        0.0007       14.4759       14.4766      12.247148       0.00780
  34     202.8        2.2298        0.0008       14.4536       14.4544      12.224601       0.00856
  33     228.4        2.2303        0.0009       14.4280       14.4289      12.198622       0.00857
  32     252.2        2.2310        0.0010       14.3983       14.3993      12.168346       0.01075
  31     276.0        2.2318        0.0011       14.3635       14.3646      12.132820       0.01261
  30     299.8        2.2329        0.0012       14.3217       14.3229      12.089956       0.01521
  29     323.5        2.2343        0.0013       14.2720       14.2733      12.038995       0.01809
  28     347.3        2.2360        0.0014       14.2129       14.2143      11.978227       0.02157
  27     371.1        2.2380        0.0014       14.1438       14.1452      11.907211       0.02521
  26     394.9        2.2402        0.0015       14.0605       14.0620      11.821779       0.03032
  25     418.6        2.2427        0.0016       13.9639       13.9655      11.722841       0.03512
  24     442.4        2.2455        0.0017       13.8548       13.8565      11.610921       0.03973
  23     466.2        2.2487        0.0018       13.7365       13.7383      11.489533       0.04309
  22     489.9        2.2523        0.0018       13.6136       13.6154      11.363125       0.04487
  21     513.7        2.2565        0.0019       13.4859       13.4878      11.231345       0.04678
  20     537.5        2.2613        0.0020       13.3568       13.3587      11.097442       0.04753
  19     561.3        2.2668        0.0020       13.2261       13.2281      10.961288       0.04833
  18     585.0        2.2734        0.0021       13.0915       13.0936      10.820240       0.05007
  17     608.8        2.2808        0.0022       12.9542       12.9564      10.675531       0.05137
  16     632.6        2.2894        0.0022       12.8109       12.8132      10.523755       0.05387
  15     656.4        2.2996        0.0023       12.6541       12.6564      10.356767       0.05927
  14     680.1        2.3118        0.0023       12.4832       12.4856      10.173819       0.06494
  13     703.9        2.3263        0.0024       12.2977       12.3001       9.973787       0.07100
  12     727.7        2.3443        0.0024       12.0950       12.0974       9.753150       0.07832
  11     751.5        2.3671        0.0025       11.8732       11.8757       9.508596       0.08681
  10     775.2        2.3964        0.0025       11.6374       11.6399       9.243504       0.09410
   9     799.0        2.4349        0.0025       11.3910       11.3935       8.958669       0.10110
   8     822.8        1.8098        6.2353        3.7112        9.9466       8.136825       0.29172
   7     846.6        1.2371        7.4543        1.2101        8.6644       7.427321       0.25184
   6     870.4        0.7011        7.1348        0.3950        7.5297       6.828607       0.21252
   5     894.1        0.1870        6.3915        0.1290        6.5205       6.333458       0.17576
   4     917.9        0.1892        6.2588        0.1266        6.3853       6.196103       0.04876
   3     941.7        0.1918        6.1308        0.1242        6.2550       6.063138       0.04720
   2     965.5        0.1948        6.0065        0.1218        6.1284       5.933574       0.04599
   1     989.2        0.1983        5.8852        0.1196        6.0047       5.806471       0.04511
   0    1013.0        0.2024        5.7659        0.1173        5.8832       5.680827       0.04461



 Wavenumbers:  4650. -  5150. cm-1, ATM      1
 LEVEL PRESSURE   UPWARD FLUX   DIFDOWN FLUX  DIRDOWN FLUX  DOWNWARD FLUX   NET FLUX    HEATING RATE
          mb          W/m2          W/m2          W/m2        W/m2          W/m2       degree/day
  60   .000300        1.5370        0.0000       13.8369       13.8369      12.299902       0.00000
  59    0.1000        1.5370        0.0000       13.8347       13.8347      12.297784       0.17928
  58    0.1403        1.5370        0.0000       13.8339       13.8339      12.296945       0.17564
  57    0.1968        1.5370        0.0000       13.8327       13.8327      12.295779       0.17409
  56    0.2760        1.5370        0.0000       13.8312       13.8312      12.294190       0.16936
  55    0.3871        1.5370        0.0000       13.8290       13.8290      12.292010       0.16558
  54    0.5430        1.5370        0.0000       13.8260       13.8260      12.289075       0.15891
  53    0.7617        1.5370        0.0000       13.8221       13.8221      12.285171       0.15065
  52     1.069        1.5370        0.0000       13.8170       13.8170      12.280018       0.14174
  51     1.499        1.5370        0.0000       13.8105       13.8105      12.273534       0.12716
  50     2.102        1.5370        0.0000       13.8026       13.8026      12.265663       0.11005
  49     2.949        1.5370        0.0000       13.7933       13.7933      12.256365       0.09268
  48     4.137        1.5369        0.0000       13.7830       13.7831      12.246122       0.07279
  47     5.803        1.5369        0.0000       13.7724       13.7724      12.235475       0.05394
  46     8.139        1.5369        0.0000       13.7615       13.7616      12.224648       0.03910
  45     11.42        1.5369        0.0001       13.7497       13.7498      12.212879       0.03030
  44     16.01        1.5369        0.0001       13.7347       13.7348      12.197852       0.02758
  43     22.46        1.5369        0.0001       13.7122       13.7123      12.175365       0.02943
  42     31.51        1.5370        0.0002       13.6758       13.6760      12.139062       0.03387
  41     44.20        1.5370        0.0003       13.6167       13.6170      12.079974       0.03930
  40     62.00        1.5372        0.0004       13.5244       13.5248      11.987628       0.04378
  39     85.78        1.5374        0.0005       13.3944       13.3949      11.857525       0.04618
  38     109.5        1.5378        0.0006       13.2650       13.2657      11.727886       0.04602
  37     133.1        1.5383        0.0008       13.1487       13.1495      11.611260       0.04188
  36     156.8        1.5388        0.0009       13.0449       13.0458      11.506945       0.03699
  35     180.6        1.5395        0.0010       12.9437       12.9447      11.405167       0.03613
  34     202.8        1.5404        0.0011       12.8534       12.8546      11.314224       0.03453
  33     228.4        1.5413        0.0013       12.7658       12.7671      11.225717       0.02920
  32     252.2        1.5425        0.0014       12.6801       12.6815      11.139007       0.03078
  31     276.0        1.5439        0.0015       12.5950       12.5965      11.052595       0.03067
  30     299.8        1.5457        0.0016       12.5053       12.5069      10.961214       0.03244
  29     323.5        1.5479        0.0018       12.4093       12.4110      10.863142       0.03481
  28     347.3        1.5504        0.0019       12.3075       12.3094      10.758936       0.03699
  27     371.1        1.5533        0.0020       12.1993       12.2013      10.647948       0.03940
  26     394.9        1.5568        0.0021       12.0815       12.0836      10.526854       0.04298
  25     418.6        1.5607        0.0022       11.9549       11.9570      10.396335       0.04633
  24     442.4        1.5652        0.0023       11.8185       11.8208      10.255603       0.04995
  23     466.2        1.5704        0.0024       11.6730       11.6754      10.105026       0.05345
  22     489.9        1.5761        0.0025       11.5203       11.5228       9.946623       0.05623
  21     513.7        1.5827        0.0026       11.3577       11.3602       9.777500       0.06003
  20     537.5        1.5901        0.0026       11.1878       11.1905       9.600315       0.06289
  19     561.3        1.5986        0.0027       11.0105       11.0132       9.414635       0.06591
  18     585.0        1.6082        0.0028       10.8249       10.8276       9.219483       0.06927
  17     608.8        1.6189        0.0028       10.6366       10.6394       9.020545       0.07061
  16     632.6        1.6309        0.0029       10.4463       10.4492       8.818312       0.07178
  15     656.4        1.6448        0.0030       10.2497       10.2526       8.607803       0.07472
  14     680.1        1.6607        0.0030       10.0509       10.0539       8.393273       0.07615
  13     703.9        1.6788        0.0030        9.8514        9.8544       8.175687       0.07723
  12     727.7        1.6999        0.0031        9.6483        9.6514       7.951494       0.07958
  11     751.5        1.7252        0.0031        9.4402        9.4433       7.718171       0.08282
  10     775.2        1.7554        0.0032        9.2294        9.2326       7.477191       0.08554
   9     799.0        1.7919        0.0032        9.0169        9.0201       7.228119       0.08841
   8     822.8        1.3288        4.8439        2.9609        7.8048       6.476061       0.26695
   7     846.6        0.9075        5.7645        0.9730        6.7376       5.830022       0.22932
   6     870.4        0.5142        5.4789        0.3199        5.7988       5.284591       0.19361
   5     894.1        0.1381        4.8672        0.1052        4.9725       4.834359       0.15981
   4     917.9        0.1403        4.7526        0.1030        4.8556       4.715300       0.04226
   3     941.7        0.1427        4.6414        0.1008        4.7421       4.599404       0.04114
   2     965.5        0.1455        4.5337        0.0987        4.6324       4.486855       0.03995
   1     989.2        0.1486        4.4294        0.0966        4.5259       4.377318       0.03887
   0    1013.0        0.1521        4.3282        0.0945        4.4227       4.270560       0.03790



 Wavenumbers:  5150. -  6150. cm-1, ATM      1
 LEVEL PRESSURE   UPWARD FLUX   DIFDOWN FLUX  DIRDOWN FLUX  DOWNWARD FLUX   NET FLUX    HEATING RATE
          mb          W/m2          W/m2          W/m2        W/m2          W/m2       degree/day
  60   .000300        4.2821        0.0000       34.6891       34.6891      30.407007       0.00000
  59    0.1000        4.2821        0.0000       34.6886       34.6886      30.406511       0.04200
  58    0.1403        4.2821        0.0000       34.6884       34.6884      30.406311       0.04192
  57    0.1968        4.2821        0.0000       34.6881       34.6881      30.406029       0.04209
  56    0.2760        4.2821        0.0000       34.6877       34.6877      30.405638       0.04166
  55    0.3871        4.2821        0.0000       34.6871       34.6871      30.405089       0.04175
  54    0.5430        4.2821        0.0000       34.6864       34.6864      30.404323       0.04146
  53    0.7617        4.2821        0.0000       34.6853       34.6853      30.403253       0.04126
  52     1.069        4.2820        0.0000       34.6838       34.6838      30.401747       0.04144
  51     1.499        4.2820        0.0000       34.6817       34.6817      30.399656       0.04100
  50     2.102        4.2820        0.0001       34.6787       34.6788      30.396767       0.04040
  49     2.949        4.2820        0.0001       34.6746       34.6747      30.392687       0.04067
  48     4.137        4.2820        0.0001       34.6689       34.6690      30.387013       0.04032
  47     5.803        4.2820        0.0002       34.6610       34.6612      30.379189       0.03963
  46     8.139        4.2820        0.0002       34.6502       34.6504      30.368469       0.03872
  45     11.42        4.2820        0.0003       34.6356       34.6359      30.353914       0.03747
  44     16.01        4.2819        0.0004       34.6159       34.6163      30.334402       0.03581
  43     22.46        4.2819        0.0006       34.5899       34.5905      30.308627       0.03373
  42     31.51        4.2819        0.0009       34.5564       34.5572      30.275347       0.03105
  41     44.20        4.2819        0.0012       34.5139       34.5152      30.233250       0.02800
  40     62.00        4.2820        0.0017       34.4619       34.4636      30.181595       0.02449
  39     85.78        4.2821        0.0024       34.4020       34.4044      30.122223       0.02107
  38     109.5        4.2823        0.0030       34.3491       34.3521      30.069818       0.01860
  37     133.1        4.2825        0.0036       34.3031       34.3068      30.024261       0.01636
  36     156.8        4.2827        0.0043       34.2595       34.2638      29.981044       0.01532
  35     180.6        4.2829        0.0049       34.2031       34.2080      29.925034       0.01988
  34     202.8        4.2832        0.0055       34.1091       34.1147      29.831490       0.03552
  33     228.4        4.2835        0.0061       33.9252       33.9314      29.647884       0.06058
  32     252.2        4.2838        0.0067       33.6087       33.6154      29.331557       0.11228
  31     276.0        4.2842        0.0072       33.1225       33.1298      28.845543       0.17251
  30     299.8        4.2848        0.0077       32.4763       32.4841      28.199285       0.22940
  29     323.5        4.2855        0.0082       31.7610       31.7692      27.483651       0.25402
  28     347.3        4.2864        0.0086       31.0137       31.0223      26.735874       0.26543
  27     371.1        4.2876        0.0089       30.2247       30.2336      25.946013       0.28037
  26     394.9        4.2891        0.0092       29.3520       29.3612      25.072127       0.31019
  25     418.6        4.2909        0.0095       28.4400       28.4495      24.158586       0.32427
  24     442.4        4.2932        0.0098       27.5194       27.5292      23.235939       0.32750
  23     466.2        4.2960        0.0100       26.6227       26.6327      22.336721       0.31919
  22     489.9        4.2994        0.0102       25.7669       25.7770      21.477674       0.30493
  21     513.7        4.3036        0.0104       24.9371       24.9475      20.643888       0.29596
  20     537.5        4.3087        0.0106       24.1537       24.1643      19.855580       0.27982
  19     561.3        4.3150        0.0107       23.4247       23.4355      19.120410       0.26096
  18     585.0        4.3228        0.0109       22.7500       22.7609      18.438078       0.24220
  17     608.8        4.3322        0.0111       22.1480       22.1591      17.826979       0.21692
  16     632.6        4.3433        0.0113       21.6116       21.6229      17.279597       0.19430
  15     656.4        4.3571        0.0115       21.1193       21.1308      16.773715       0.17957
  14     680.1        4.3742        0.0117       20.6722       20.6839      16.309731       0.16470
  13     703.9        4.3953        0.0119       20.2664       20.2783      15.883049       0.15145
  12     727.7        4.4219        0.0121       19.8884       19.9006      15.478620       0.14356
  11     751.5        4.4565        0.0123       19.5264       19.5388      15.082269       0.14069
  10     775.2        4.5016        0.0125       19.1765       19.1891      14.687530       0.14012
   9     799.0        4.5609        0.0127       18.8290       18.8417      14.280833       0.14436
   8     822.8        3.4210       10.6523        6.2739       16.9262      13.505288       0.27529
   7     846.6        2.3551       13.0774        2.0912       15.1687      12.813570       0.24553
   6     870.4        1.3434       12.8625        0.6974       13.5600      12.216523       0.21193
   5     894.1        0.3645       11.8438        0.2327       12.0765      11.711936       0.17911
   4     917.9        0.3668       11.6258        0.2287       11.8545      11.487782       0.07957
   3     941.7        0.3694       11.4197        0.2249       11.6446      11.275168       0.07547
   2     965.5        0.3727       11.2276        0.2213       11.4489      11.076188       0.07063
   1     989.2        0.3767       11.0499        0.2179       11.2678      10.891081       0.06569
   0    1013.0        0.3819       10.8860        0.2147       11.1007      10.718850       0.06115



 Wavenumbers:  6150. -  7700. cm-1, ATM      1
 LEVEL PRESSURE   UPWARD FLUX   DIFDOWN FLUX  DIRDOWN FLUX  DOWNWARD FLUX   NET FLUX    HEATING RATE
          mb          W/m2          W/m2          W/m2        W/m2          W/m2       degree/day
  60   .000300        6.6728        0.0000       64.1588       64.1588      57.486005       0.00000
  59    0.1000        6.6728        0.0000       64.1581       64.1581      57.485345       0.05584
  58    0.1403        6.6728        0.0000       64.1578       64.1578      57.485078       0.05593
  57    0.1968        6.6727        0.0000       64.1574       64.1574      57.484702       0.05625
  56    0.2760        6.6727        0.0000       64.1569       64.1569      57.484178       0.05580
  55    0.3871        6.6727        0.0000       64.1561       64.1562      57.483440       0.05604
  54    0.5430        6.6727        0.0001       64.1551       64.1551      57.482410       0.05578
  53    0.7617        6.6727        0.0001       64.1536       64.1537      57.480968       0.05562
  52     1.069        6.6727        0.0001       64.1515       64.1516      57.478936       0.05590
  51     1.499        6.6726        0.0002       64.1486       64.1487      57.476119       0.05524
  50     2.102        6.6726        0.0002       64.1446       64.1448      57.472231       0.05437
  49     2.949        6.6725        0.0003       64.1389       64.1392      57.466745       0.05468
  48     4.137        6.6724        0.0005       64.1310       64.1315      57.459113       0.05423
  47     5.803        6.6722        0.0007       64.1201       64.1208      57.448564       0.05344
  46     8.139        6.6720        0.0009       64.1051       64.1060      57.434029       0.05249
  45     11.42        6.6717        0.0013       64.0845       64.0858      57.414112       0.05128
  44     16.01        6.6713        0.0018       64.0565       64.0583      57.387062       0.04965
  43     22.46        6.6707        0.0026       64.0187       64.0213      57.350633       0.04767
  42     31.51        6.6698        0.0036       63.9683       63.9719      57.302123       0.04525
  41     44.20        6.6686        0.0051       63.9021       63.9072      57.238578       0.04226
  40     62.00        6.6670        0.0071       63.8170       63.8241      57.157144       0.03861
  39     85.78        6.6648        0.0098       63.7137       63.7235      57.058741       0.03493
  38     109.5        6.6625        0.0125       63.6174       63.6300      56.967427       0.03241
  37     133.1        6.6604        0.0152       63.5307       63.5458      56.885451       0.02944
  36     156.8        6.6583        0.0177       63.4470       63.4647      56.806394       0.02803
  35     180.6        6.6561        0.0204       63.3411       63.3616      56.705427       0.03585
  34     202.8        6.6541        0.0230       63.1774       63.2004      56.546372       0.06039
  33     228.4        6.6520        0.0256       62.8910       62.9166      56.264581       0.09297
  32     252.2        6.6501        0.0281       62.4548       62.4829      55.832749       0.15328
  31     276.0        6.6484        0.0304       61.8034       61.8338      55.185334       0.22981
  30     299.8        6.6470        0.0325       60.8493       60.8817      54.234709       0.33743
  29     323.5        6.6461        0.0344       59.6406       59.6750      53.028947       0.42800
  28     347.3        6.6457        0.0361       58.2994       58.3355      51.689837       0.47533
  27     371.1        6.6459        0.0377       56.9373       56.9750      50.329093       0.48301
  26     394.9        6.6470        0.0391       55.4853       55.5244      48.877429       0.51528
  25     418.6        6.6491        0.0403       53.9434       53.9837      47.334557       0.54766
  24     442.4        6.6525        0.0414       52.3152       52.3566      45.704057       0.57876
  23     466.2        6.6573        0.0423       50.6699       50.7122      44.054886       0.58539
  22     489.9        6.6638        0.0432       49.0609       49.1041      42.440310       0.57311
  21     513.7        6.6725        0.0439       47.4627       47.5066      40.834160       0.57012
  20     537.5        6.6837        0.0445       45.9016       45.9462      39.262453       0.55789
  19     561.3        6.6981        0.0451       44.3828       44.4279      37.729770       0.54404
  18     585.0        6.7163        0.0456       42.9069       42.9525      36.236132       0.53018
  17     608.8        6.7385        0.0461       41.5192       41.5653      34.826755       0.50027
  16     632.6        6.7655        0.0465       40.2123       40.2588      33.493279       0.47333
  15     656.4        6.7992        0.0469       38.9372       38.9840      32.184803       0.46446
  14     680.1        6.8413        0.0472       37.7038       37.7510      30.909727       0.45260
  13     703.9        6.8937        0.0474       36.5148       36.5622      29.668499       0.44058
  12     727.7        6.9607        0.0476       35.3478       35.3954      28.434736       0.43793
  11     751.5        7.0488        0.0478       34.1879       34.2357      27.186846       0.44295
  10     775.2        7.1653        0.0478       33.0529       33.1008      25.935510       0.44417
   9     799.0        7.3230        0.0478       31.9455       31.9933      24.670389       0.44907
   8     822.8        5.4758       17.9133       10.6617       28.5750      23.099265       0.55768
   7     846.6        3.7597       21.9601        3.5668       25.5269      21.767134       0.47285
   6     870.4        2.1336       21.5925        1.1956       22.7882      20.654567       0.39492
   5     894.1        0.5636       19.9016        0.4015       20.3031      19.739540       0.32480
   4     917.9        0.5699       19.3354        0.3909       19.7264      19.156497       0.20696
   3     941.7        0.5774       18.8061        0.3809       19.1869      18.609536       0.19415
   2     965.5        0.5865       18.3120        0.3714       18.6834      18.096934       0.18195
   1     989.2        0.5975       17.8502        0.3625       18.2127      17.615158       0.17097
   0    1013.0        0.6113       17.4169        0.3540       17.7709      17.159542       0.16176



 Wavenumbers:  7700. -  8050. cm-1, ATM      1
 LEVEL PRESSURE   UPWARD FLUX   DIFDOWN FLUX  DIRDOWN FLUX  DOWNWARD FLUX   NET FLUX    HEATING RATE
          mb          W/m2          W/m2          W/m2        W/m2          W/m2       degree/day
  60   .000300        3.3389        0.0000       15.1626       15.1626      11.823695       0.00000
  59    0.1000        3.3390        0.0000       15.1625       15.1625      11.823513       0.01543
  58    0.1403        3.3390        0.0000       15.1624       15.1624      11.823438       0.01552
  57    0.1968        3.3390        0.0000       15.1623       15.1623      11.823334       0.01560
  56    0.2760        3.3390        0.0000       15.1622       15.1622      11.823189       0.01548
  55    0.3871        3.3390        0.0000       15.1620       15.1620      11.822984       0.01555
  54    0.5430        3.3390        0.0000       15.1617       15.1617      11.822698       0.01548
  53    0.7617        3.3391        0.0000       15.1613       15.1614      11.822298       0.01545
  52     1.069        3.3391        0.0001       15.1608       15.1609      11.821732       0.01556
  51     1.499        3.3392        0.0001       15.1601       15.1602      11.820946       0.01542
  50     2.102        3.3393        0.0001       15.1591       15.1592      11.819856       0.01524
  49     2.949        3.3395        0.0001       15.1576       15.1578      11.818309       0.01541
  48     4.137        3.3397        0.0002       15.1556       15.1558      11.816140       0.01542
  47     5.803        3.3400        0.0003       15.1528       15.1531      11.813107       0.01536
  46     8.139        3.3404        0.0004       15.1489       15.1493      11.808865       0.01532
  45     11.42        3.3411        0.0006       15.1434       15.1440      11.802929       0.01528
  44     16.01        3.3419        0.0008       15.1358       15.1366      11.794636       0.01522
  43     22.46        3.3431        0.0011       15.1251       15.1262      11.783039       0.01518
  42     31.51        3.3448        0.0015       15.1101       15.1117      11.766833       0.01512
  41     44.20        3.3472        0.0022       15.0892       15.0914      11.744175       0.01507
  40     62.00        3.3506        0.0030       15.0604       15.0634      11.712797       0.01488
  39     85.78        3.3552        0.0042       15.0223       15.0265      11.671304       0.01473
  38     109.5        3.3599        0.0053       14.9841       14.9895      11.629576       0.01481
  37     133.1        3.3645        0.0064       14.9478       14.9543      11.589789       0.01429
  36     156.8        3.3690        0.0075       14.9129       14.9204      11.551428       0.01360
  35     180.6        3.3739        0.0086       14.8763       14.8849      11.511044       0.01434
  34     202.8        3.3787        0.0097       14.8414       14.8512      11.472489       0.01464
  33     228.4        3.3836        0.0108       14.8062       14.8171      11.433452       0.01288
  32     252.2        3.3887        0.0120       14.7713       14.7832      11.394571       0.01380
  31     276.0        3.3937        0.0130       14.7370       14.7501      11.356343       0.01357
  30     299.8        3.3989        0.0141       14.7027       14.7169      11.317967       0.01362
  29     323.5        3.4042        0.0152       14.6685       14.6838      11.279552       0.01364
  28     347.3        3.4096        0.0163       14.6347       14.6511      11.241434       0.01353
  27     371.1        3.4151        0.0174       14.6014       14.6188      11.203694       0.01340
  26     394.9        3.4208        0.0185       14.5675       14.5860      11.165217       0.01366
  25     418.6        3.4267        0.0196       14.5336       14.5532      11.126506       0.01374
  24     442.4        3.4328        0.0206       14.4995       14.5202      11.087413       0.01388
  23     466.2        3.4390        0.0217       14.4651       14.4868      11.047774       0.01407
  22     489.9        3.4455        0.0228       14.4307       14.4535      11.007996       0.01412
  21     513.7        3.4522        0.0238       14.3957       14.4195      10.967240       0.01447
  20     537.5        3.4592        0.0249       14.3603       14.3852      10.925963       0.01465
  19     561.3        3.4665        0.0259       14.3246       14.3505      10.883984       0.01490
  18     585.0        3.4742        0.0269       14.2875       14.3145      10.840264       0.01552
  17     608.8        3.4822        0.0280       14.2500       14.2780      10.795759       0.01580
  16     632.6        3.4906        0.0290       14.2119       14.2409      10.750323       0.01613
  15     656.4        3.4995        0.0300       14.1722       14.2022      10.702679       0.01691
  14     680.1        3.5090        0.0310       14.1314       14.1623      10.653343       0.01751
  13     703.9        3.5191        0.0320       14.0891       14.1211      10.602003       0.01822
  12     727.7        3.5300        0.0329       14.0446       14.0775      10.547563       0.01932
  11     751.5        3.5420        0.0339       13.9973       14.0312      10.489248       0.02070
  10     775.2        3.5550        0.0349       13.9473       13.9822      10.427169       0.02204
   9     799.0        3.5694        0.0358       13.8944       13.9302      10.360821       0.02355
   8     822.8        2.7129        8.1010        4.8116       12.9125      10.199599       0.05723
   7     846.6        1.8944       10.2795        1.6652       11.9448      10.050312       0.05299
   6     870.4        1.1037       10.4419        0.5763       11.0183       9.914554       0.04819
   5     894.1        0.3328        9.9266        0.1995       10.1261       9.793293       0.04304
   4     917.9        0.3338        9.8764        0.1986       10.0749       9.741099       0.01853
   3     941.7        0.3349        9.8244        0.1976       10.0221       9.687126       0.01916
   2     965.5        0.3362        9.7712        0.1967        9.9678       9.631664       0.01969
   1     989.2        0.3375        9.7166        0.1957        9.9122       9.574706       0.02021
   0    1013.0        0.3390        9.6606        0.1946        9.8552       9.516228       0.02076



 Wavenumbers:  8050. - 12850. cm-1, ATM      1
 LEVEL PRESSURE   UPWARD FLUX   DIFDOWN FLUX  DIRDOWN FLUX  DOWNWARD FLUX   NET FLUX    HEATING RATE
          mb          W/m2          W/m2          W/m2        W/m2          W/m2       degree/day
  60   .000300       41.9430        0.0000      212.2880      212.2880     170.344970       0.00000
  59    0.1000       41.9428        0.0002      212.2876      212.2878     170.344970       0.00000
  58    0.1403       41.9428        0.0003      212.2874      212.2878     170.344970      -0.00000
  57    0.1968       41.9427        0.0005      212.2872      212.2877     170.344970      -0.00000
  56    0.2760       41.9426        0.0007      212.2869      212.2875     170.344970       0.00000
  55    0.3871       41.9424        0.0009      212.2864      212.2874     170.344970       0.00000
  54    0.5430       41.9421        0.0013      212.2858      212.2871     170.344970      -0.00000
  53    0.7617       41.9418        0.0018      212.2850      212.2868     170.344970       0.00000
  52     1.069       41.9413        0.0025      212.2837      212.2863     170.344970       0.00000
  51     1.499       41.9406        0.0035      212.2820      212.2856     170.344970      -0.00000
  50     2.102       41.9397        0.0050      212.2797      212.2846     170.344970       0.00000
  49     2.949       41.9383        0.0069      212.2763      212.2833     170.344970       0.00000
  48     4.137       41.9364        0.0097      212.2717      212.2814     170.344970       0.00000
  47     5.803       41.9338        0.0137      212.2651      212.2788     170.344970       0.00000
  46     8.139       41.9301        0.0191      212.2559      212.2751     170.344970      -0.00000
  45     11.42       41.9249        0.0268      212.2430      212.2699     170.344970      -0.00000
  44     16.01       41.9176        0.0376      212.2250      212.2626     170.344970       0.00000
  43     22.46       41.9075        0.0527      212.1998      212.2524     170.344970      -0.00000
  42     31.51       41.8932        0.0738      212.1643      212.2381     170.344970       0.00000
  41     44.20       41.8731        0.1036      212.1145      212.2181     170.344970      -0.00000
  40     62.00       41.8451        0.1450      212.0450      212.1900     170.344970      -0.00000
  39     85.78       41.8076        0.2004      211.9522      212.1526     170.344970       0.00000
  38     109.5       41.7698        0.2567      211.8451      212.1018     170.332052       0.00459
  37     133.1       41.7333        0.3108      211.7421      212.0530     170.319675       0.00444
  36     156.8       41.6977        0.3636      211.6412      212.0047     170.306968       0.00451
  35     180.6       41.6599        0.4196      211.5292      211.9487     170.288805       0.00645
  34     202.8       41.6236        0.4735      211.4041      211.8776     170.254022       0.01321
  33     228.4       41.5866        0.5284      211.2349      211.7634     170.176726       0.02550
  32     252.2       41.5499        0.5834      211.0003      211.5837     170.033821       0.05073
  31     276.0       41.5142        0.6375      210.6760      211.3135     169.799254       0.08326
  30     299.8       41.4794        0.6917      210.2328      210.9245     169.445148       0.12569
  29     323.5       41.4460        0.7457      209.6743      210.4201     168.974085       0.16721
  28     347.3       41.4150        0.7989      209.0175      209.8164     168.401359       0.20329
  27     371.1       41.3870        0.8509      208.2872      209.1381     167.751089       0.23082
  26     394.9       41.3619        0.9031      207.4416      208.3447     166.982765       0.27272
  25     418.6       41.3410        0.9545      206.4758      207.4303     166.089359       0.31712
  24     442.4       41.3251        1.0051      205.3737      206.3788     165.053663       0.36763
  23     466.2       41.3148        1.0550      204.1488      205.2038     163.888954       0.41342
  22     489.9       41.3113        1.1035      202.8236      203.9271     162.615762       0.45193
  21     513.7       41.3161        1.1513      201.3667      202.5181     161.201939       0.50185
  20     537.5       41.3309        1.1977      199.7935      200.9912     159.660261       0.54723
  19     561.3       41.3576        1.2425      198.0998      199.3423     157.984726       0.59475
  18     585.0       41.3979        1.2869      196.2781      197.5651     156.167114       0.64518
  17     608.8       41.4529        1.3299      194.3934      195.7234     154.270506       0.67322
  16     632.6       41.5246        1.3715      192.4530      193.8244     152.299811       0.69952
  15     656.4       41.6198        1.4123      190.4000      191.8123     150.192552       0.74799
  14     680.1       41.7436        1.4514      188.2528      189.7042     147.960587       0.79226
  13     703.9       41.9024        1.4887      186.0204      187.5091     145.606702       0.83553
  12     727.7       42.1085        1.5247      183.6647      185.1894     143.080876       0.89656
  11     751.5       42.3809        1.5589      181.1466      182.7055     140.324649       0.97835
  10     775.2       42.7371        1.5908      178.4925      180.0833     137.346194       1.05723
   9     799.0       43.2057        1.6203      175.7106      177.3309     134.125199       1.14332
   8     822.8       32.7439      102.5546       60.9063      163.4609     130.716998       1.20977
   7     846.6       22.7988      129.3249       21.1166      150.4415     127.642736       1.09124
   6     870.4       13.2315      130.8439        7.3243      138.1682     124.936697       0.96053
   5     894.1        3.9266      123.9950        2.5409      126.5359     122.609339       0.82612
   4     917.9        3.9333      121.9917        2.5024      124.4942     120.560884       0.72712
   3     941.7        3.9452      120.0485        2.4647      122.5132     118.568028       0.70738
   2     965.5        3.9632      118.1727        2.4281      120.6008     116.637578       0.68523
   1     989.2        3.9887      116.3593        2.3924      118.7517     114.762975       0.66527
   0    1013.0        4.0235      114.6033        2.3577      116.9610     112.937502       0.64810



 Wavenumbers: 12850. - 16000. cm-1, ATM      1
 LEVEL PRESSURE   UPWARD FLUX   DIFDOWN FLUX  DIRDOWN FLUX  DOWNWARD FLUX   NET FLUX    HEATING RATE
          mb          W/m2          W/m2          W/m2        W/m2          W/m2       degree/day
  60   .000300       31.9568        0.0000      133.0172      133.0172     101.060407       0.00000
  59    0.1000       31.9565        0.0005      133.0095      133.0100     101.053536       0.58165
  58    0.1403       31.9564        0.0007      133.0064      133.0072     101.050736       0.58641
  57    0.1968       31.9563        0.0010      133.0021      133.0031     101.046796       0.58850
  56    0.2760       31.9562        0.0014      132.9962      132.9976     101.041350       0.58030
  55    0.3871       31.9561        0.0020      132.9880      132.9900     101.033815       0.57235
  54    0.5430       31.9561        0.0028      132.9769      132.9797     101.023572       0.55446
  53    0.7617       31.9562        0.0039      132.9618      132.9657     101.009525       0.54204
  52     1.069       31.9567        0.0055      132.9413      132.9467     100.990076       0.53500
  51     1.499       31.9579        0.0077      132.9135      132.9211     100.963238       0.52634
  50     2.102       31.9608        0.0107      132.8748      132.8855     100.924766       0.53789
  49     2.949       31.9670        0.0150      132.8176      132.8326     100.865577       0.59001
  48     4.137       31.9786        0.0210      132.7325      132.7535     100.774970       0.64386
  47     5.803       31.9968        0.0295      132.6115      132.6409     100.644103       0.66295
  46     8.139       32.0217        0.0412      132.4493      132.4906     100.468917       0.63269
  45     11.42       32.0519        0.0577      132.2424      132.3001     100.248264       0.56810
  44     16.01       32.0870        0.0807      131.9828      132.0635      99.976430       0.49896
  43     22.46       32.1265        0.1128      131.6592      131.7721      99.645602       0.43290
  42     31.51       32.1647        0.1578      131.2747      131.4325      99.267763       0.35247
  41     44.20       32.1910        0.2207      130.8450      131.0658      98.874824       0.26132
  40     62.00       32.1985        0.3083      130.3669      130.6752      98.476722       0.18875
  39     85.78       32.1721        0.4251      129.8828      130.3079      98.135817       0.12101
  38     109.5       32.1315        0.5441      129.4797      130.0238      97.892242       0.08646
  37     133.1       32.0861        0.6583      129.1217      129.7801      97.693972       0.07120
  36     156.8       32.0384        0.7692      128.7892      129.5584      97.520007       0.06169
  35     180.6       31.9831        0.8867      128.4511      129.3378      97.354713       0.05868
  34     202.8       31.9255        0.9996      128.1377      129.1373      97.211812       0.05426
  33     228.4       31.8647        1.1145      127.8216      128.9360      97.071347       0.04634
  32     252.2       31.8026        1.2293      127.5049      128.7342      96.931659       0.04958
  31     276.0       31.7402        1.3425      127.1922      128.5347      96.794542       0.04867
  30     299.8       31.6767        1.4564      126.8751      128.3315      96.654752       0.04962
  29     323.5       31.6134        1.5701      126.5537      128.1238      96.510447       0.05122
  28     347.3       31.5511        1.6825      126.2298      127.9123      96.361207       0.05297
  27     371.1       31.4902        1.7932      125.9047      127.6979      96.207667       0.05450
  26     394.9       31.4295        1.9050      125.5688      127.4738      96.044271       0.05800
  25     418.6       31.3704        2.0162      125.2257      127.2419      95.871551       0.06131
  24     442.4       31.3130        2.1268      124.8736      127.0004      95.687441       0.06535
  23     466.2       31.2574        2.2373      124.5111      126.7484      95.491040       0.06971
  22     489.9       31.2047        2.3461      124.1420      126.4881      95.283491       0.07367
  21     513.7       31.1545        2.4550      123.7577      126.2126      95.058163       0.07998
  20     537.5       31.1081        2.5622      123.3614      125.9236      94.815481       0.08614
  19     561.3       31.0662        2.6679      122.9509      125.6188      94.552598       0.09331
  18     585.0       31.0281        2.7744      122.5175      125.2920      94.263886       0.10248
  17     608.8       30.9943        2.8791      122.0752      124.9543      93.960015       0.10786
  16     632.6       30.9653        2.9820      121.6228      124.6047      93.639399       0.11381
  15     656.4       30.9418        3.0850      121.1473      124.2323      93.290499       0.12385
  14     680.1       30.9258        3.1859      120.6531      123.8390      92.913259       0.13390
  13     703.9       30.9185        3.2847      120.1376      123.4222      92.503676       0.14538
  12     727.7       30.9221        3.3826      119.5892      122.9718      92.049684       0.16115
  11     751.5       30.9389        3.4795      119.0038      122.4833      91.544327       0.17938
  10     775.2       30.9718        3.5739      118.3848      121.9587      90.986861       0.19788
   9     799.0       31.0240        3.6656      117.7284      121.3940      90.369914       0.21899
   8     822.8       24.0762       71.9480       41.8425      113.7905      89.714307       0.23271
   7     846.6       17.3956       91.6175       14.8715      106.4890      89.093402       0.22040
   6     870.4       10.9170       94.1508        5.2850       99.4358      88.518797       0.20396
   5     894.1        4.5898       90.7095        1.8781       92.5876      87.997843       0.18492
   4     917.9        4.5444       90.1776        1.8665       92.0441      87.499640       0.17684
   3     941.7        4.5008       89.6396        1.8547       91.4942      86.993465       0.17967
   2     965.5        4.4593       89.0992        1.8428       90.9421      86.482749       0.18128
   1     989.2        4.4203       88.5575        1.8310       90.3885      85.968188       0.18261
   0    1013.0        4.3839       88.0146        1.8191       89.8337      85.449782       0.18405



 Wavenumbers: 16000. - 22650. cm-1, ATM      1
 LEVEL PRESSURE   UPWARD FLUX   DIFDOWN FLUX  DIRDOWN FLUX  DOWNWARD FLUX   NET FLUX    HEATING RATE
          mb          W/m2          W/m2          W/m2        W/m2          W/m2       degree/day
  60   .000300       61.6043        0.0000      212.0812      212.0812     150.476825       0.00000
  59    0.1000       61.6030        0.0028      212.0760      212.0789     150.475892       0.07900
  58    0.1403       61.6025        0.0040      212.0737      212.0777     150.475144       0.15657
  57    0.1968       61.6019        0.0056      212.0701      212.0757     150.473792       0.20198
  56    0.2760       61.6013        0.0078      212.0648      212.0727     150.471414       0.25337
  55    0.3871       61.6005        0.0110      212.0569      212.0679     150.467405       0.30452
  54    0.5430       61.5996        0.0154      212.0449      212.0603     150.460683       0.36387
  53    0.7617       61.5991        0.0216      212.0263      212.0479     150.448822       0.45770
  52     1.069       61.5994        0.0304      211.9965      212.0269     150.427499       0.58652
  51     1.499       61.6020        0.0425      211.9488      211.9914     150.389328       0.74861
  50     2.102       61.6098        0.0594      211.8701      211.9295     150.319694       0.97359
  49     2.949       61.6285        0.0833      211.7353      211.8186     150.190097       1.29186
  48     4.137       61.6651        0.1168      211.5152      211.6320     149.966915       1.58594
  47     5.803       61.7237        0.1635      211.1861      211.3496     149.625858       1.72773
  46     8.139       61.8031        0.2288      210.7354      210.9642     149.161106       1.67848
  45     11.42       61.8980        0.3201      210.1559      210.4759     148.577903       1.50154
  44     16.01       62.0052        0.4473      209.4264      209.8737     147.868459       1.30219
  43     22.46       62.1201        0.6250      208.5155      209.1405     147.020384       1.10974
  42     31.51       62.2199        0.8731      207.4281      208.3012     146.081309       0.87603
  41     44.20       62.2611        1.2200      206.1997      207.4196     145.158589       0.61365
  40     62.00       62.2140        1.7011      204.7997      206.5008     144.286895       0.41328
  39     85.78       62.0204        2.3399      203.3150      205.6550     143.634568       0.23155
  38     109.5       61.7510        2.9847      202.0234      205.0080     143.257081       0.13399
  37     133.1       61.4724        3.6004      200.8408      204.4412     142.968832       0.10351
  36     156.8       61.1908        4.1949      199.7260      203.9210     142.730197       0.08462
  35     180.6       60.8775        4.8223      198.5859      203.4082     142.530710       0.07082
  34     202.8       60.5624        5.4221      197.5309      202.9530     142.390602       0.05320
  33     228.4       60.2341        6.0296      196.4789      202.5085     142.274425       0.03833
  32     252.2       59.9005        6.6342      195.4408      202.0751     142.174594       0.03544
  31     276.0       59.5665        7.2276      194.4310      201.6585     142.092080       0.02929
  30     299.8       59.2264        7.8213      193.4267      201.2480     142.021569       0.02503
  29     323.5       58.8839        8.4120      192.4286      200.8405     141.956594       0.02306
  28     347.3       58.5431        8.9932      191.4464      200.4396     141.896496       0.02133
  27     371.1       58.2053        9.5629      190.4836      200.0465     141.841179       0.01964
  26     394.9       57.8617       10.1365      189.5132      199.6497     141.788023       0.01887
  25     418.6       57.5182       10.7045      188.5503      199.2548     141.736649       0.01824
  24     442.4       57.1743       11.2680      187.5927      198.8607     141.686340       0.01786
  23     466.2       56.8289       11.8287      186.6371      198.4658     141.636848       0.01757
  22     489.9       56.4870       12.3791      185.6961      198.0753     141.588334       0.01722
  21     513.7       56.1426       12.9288      184.7529      197.6817     141.539064       0.01749
  20     537.5       55.8014       13.4693      183.8209      197.2902     141.488835       0.01783
  19     561.3       55.4628       14.0017      182.8981      196.8998     141.437007       0.01840
  18     585.0       55.1196       14.5376      181.9641      196.5017     141.382185       0.01946
  17     608.8       54.7798       15.0643      181.0409      196.1052     141.325385       0.02016
  16     632.6       54.4435       15.5821      180.1276      195.7097     141.266215       0.02100
  15     656.4       54.1040       16.1017      179.2047      195.3064     141.202429       0.02264
  14     680.1       53.7683       16.6126      178.2893      194.9020     141.133667       0.02441
  13     703.9       53.4367       17.1152      177.3803      194.4955     141.058822       0.02657
  12     727.7       53.1044       17.6168      176.4629      194.0797     140.975304       0.02965
  11     751.5       52.7721       18.1174      175.5353      193.6527     140.880503       0.03365
  10     775.2       52.4444       18.6107      174.6074      193.2182     140.773722       0.03790
   9     799.0       52.1218       19.0967      173.6783      192.7750     140.653252       0.04276
   8     822.8       41.3043      119.4915       62.3356      181.8270     140.522730       0.04633
   7     846.6       30.8455      148.8682       22.3730      171.2411     140.395647       0.04511
   6     870.4       20.6645      152.9078        8.0318      160.9395     140.275071       0.04280
   5     894.1       10.6959      147.9750        2.8834      150.8584     140.162480       0.03997
   4     917.9       10.3712      147.5553        2.8675      150.4227     140.051528       0.03938
   3     941.7       10.0461      147.1308        2.8516      149.9824     139.936300       0.04090
   2     965.5        9.7230      146.7050        2.8358      149.5408     139.817773       0.04207
   1     989.2        9.4019      146.2782        2.8201      149.0983     139.696347       0.04309
   0    1013.0        9.0828      145.8506        2.8045      148.6551     139.572267       0.04405



 Wavenumbers: 22650. - 29000. cm-1, ATM      1
 LEVEL PRESSURE   UPWARD FLUX   DIFDOWN FLUX  DIRDOWN FLUX  DOWNWARD FLUX   NET FLUX    HEATING RATE
          mb          W/m2          W/m2          W/m2        W/m2          W/m2       degree/day
  60   .000300       31.5707        0.0000       80.0317       80.0317      48.461053       0.00000
  59    0.1000       31.5691        0.0034       80.0267       80.0301      48.461053      -0.00000
  58    0.1403       31.5684        0.0048       80.0247       80.0295      48.461053       0.00000
  57    0.1968       31.5675        0.0068       80.0218       80.0286      48.461053      -0.00000
  56    0.2760       31.5663        0.0095       80.0178       80.0274      48.461053      -0.00000
  55    0.3871       31.5645        0.0134       80.0122       80.0256      48.461053       0.00000
  54    0.5430       31.5621        0.0188       80.0043       80.0231      48.461053       0.00000
  53    0.7617       31.5586        0.0263       79.9933       80.0197      48.461053       0.00000
  52     1.069       31.5538        0.0370       79.9778       80.0148      48.461053       0.00000
  51     1.499       31.5470        0.0518       79.9562       80.0080      48.461053      -0.00000
  50     2.102       31.5376        0.0723       79.9263       79.9987      48.461053       0.00000
  49     2.949       31.5243        0.1014       79.8839       79.9853      48.461053      -0.00000
  48     4.137       31.5056        0.1423       79.8244       79.9666      48.461053       0.00000
  47     5.803       31.4794        0.1993       79.7412       79.9405      48.461053       0.00000
  46     8.139       31.4428        0.2790       79.6249       79.9039      48.461053      -0.00000
  45     11.42       31.3916        0.3903       79.4623       79.8526      48.461053       0.00000
  44     16.01       31.3198        0.5456       79.2352       79.7809      48.461053       0.00000
  43     22.46       31.2192        0.7623       78.9179       79.6802      48.461053      -0.00000
  42     31.51       31.0781        1.0641       78.4751       79.5392      48.461053       0.00000
  41     44.20       30.8800        1.4838       77.8573       79.3411      48.461053      -0.00000
  40     62.00       30.6039        2.0611       77.0038       79.0650      48.461053       0.00000
  39     85.78       30.2355        2.8173       75.8793       78.6966      48.461053       0.00000
  38     109.5       29.8616        3.5687       74.7539       78.3227      48.461053       0.00000
  37     133.1       29.5020        4.2762       73.6869       77.9631      48.461053      -0.00000
  36     156.8       29.1525        4.9498       72.6637       77.6135      48.461053       0.00000
  35     180.6       28.7812        5.6501       71.5922       77.2423      48.461053       0.00000
  34     202.8       28.4241        6.3094       70.5757       76.8852      48.461053      -0.00000
  33     228.4       28.0601        6.9670       69.5542       76.5212      48.461053      -0.00000
  32     252.2       27.6953        7.6115       68.5449       76.1564      48.461053       0.00000
  31     276.0       27.3350        8.2342       67.5619       75.7961      48.461053       0.00000
  30     299.8       26.9721        8.8476       66.5855       75.4331      48.461053      -0.00000
  29     323.5       26.6084        9.4483       65.6212       75.0695      48.461053      -0.00000
  28     347.3       26.2481       10.0300       64.6791       74.7092      48.461053       0.00000
  27     371.1       25.8924       10.5913       63.7621       74.3535      48.461053      -0.00000
  26     394.9       25.5318       11.1474       62.8455       73.9928      48.461053       0.00000
  25     418.6       25.1721       11.6892       61.9439       73.6331      48.461053       0.00000
  24     442.4       24.8126       12.2178       61.0558       73.2737      48.461053      -0.00000
  23     466.2       24.4523       12.7352       60.1781       72.9133      48.461053       0.00000
  22     489.9       24.0959       13.2347       59.3223       72.5570      48.461053      -0.00000
  21     513.7       23.7374       13.7250       58.4735       72.1985      48.461053       0.00000
  20     537.5       23.3821       14.1990       57.6441       71.8432      48.461053      -0.00000
  19     561.3       23.0295       14.6581       56.8325       71.4905      48.461053       0.00000
  18     585.0       22.6718       15.1121       56.0207       71.1328      48.461053      -0.00000
  17     608.8       22.3174       15.5506       55.2278       70.7784      48.461053       0.00000
  16     632.6       21.9662       15.9741       54.4531       70.4272      48.461053      -0.00000
  15     656.4       21.6109       16.3916       53.6804       70.0720      48.461053      -0.00000
  14     680.1       21.2586       16.7948       52.9249       69.7196      48.461053       0.00000
  13     703.9       20.9091       17.1843       52.1859       69.3701      48.461053       0.00000
  12     727.7       20.5571       17.5661       51.4520       69.0181      48.461053      -0.00000
  11     751.5       20.2025       17.9404       50.7232       68.6636      48.461053       0.00000
  10     775.2       19.8497       18.3025       50.0082       68.3107      48.461053       0.00000
   9     799.0       19.4985       18.6529       49.3067       67.9596      48.461053      -0.00000
   8     822.8       15.6974       46.4915       17.6670       64.1584      48.461053       0.00000
   7     846.6       11.9997       54.1305        6.3303       60.4608      48.461053       0.00000
   6     870.4        8.3831       54.5755        2.2687       56.8441      48.461053      -0.00000
   5     894.1        4.8288       52.4767        0.8132       53.2898      48.461053      -0.00000
   4     917.9        4.4924       52.1517        0.8017       52.9534      48.461053       0.00000
   3     941.7        4.1552       51.8258        0.7904       52.6162      48.461053       0.00000
   2     965.5        3.8197       51.5014        0.7794       52.2807      48.461053       0.00000
   1     989.2        3.4858       51.1784        0.7685       51.9469      48.461053       0.00000
   0    1013.0        3.1537       50.8569        0.7578       51.6147      48.461053      -0.00000



 Wavenumbers: 29000. - 38000. cm-1, ATM      1
 LEVEL PRESSURE   UPWARD FLUX   DIFDOWN FLUX  DIRDOWN FLUX  DOWNWARD FLUX   NET FLUX    HEATING RATE
          mb          W/m2          W/m2          W/m2        W/m2          W/m2       degree/day
  60   .000300        6.3430        0.0000       28.2225       28.2225      21.879546       0.00000
  59    0.1000        6.3411        0.0028       28.1859       28.1887      21.847525       2.71051
  58    0.1403        6.3405        0.0039       28.1585       28.1624      21.821962       5.35301
  57    0.1968        6.3396        0.0054       28.1101       28.1156      21.776025       6.86133
  56    0.2760        6.3384        0.0076       28.0271       28.0347      21.696294       8.49577
  55    0.3871        6.3369        0.0106       27.8913       27.9019      21.564995       9.97344
  54    0.5430        6.3351        0.0146       27.6738       27.6884      21.353360      11.45622
  53    0.7617        6.3330        0.0201       27.3185       27.3386      21.005686      13.41593
  52     1.069        6.3308        0.0273       26.7574       26.7847      20.453895      15.17813
  51     1.499        6.3293        0.0366       25.9466       25.9832      19.653862      15.69043
  50     2.102        6.3299        0.0482       24.8886       24.9367      18.606800      14.63934
  49     2.949        6.3355        0.0633       23.6539       23.7172      17.381717      12.21198
  48     4.137        6.3493        0.0831       22.3800       22.4631      16.113732       9.01036
  47     5.803        6.3736        0.1093       21.1533       21.2626      14.889034       6.20410
  46     8.139        6.4079        0.1446       20.0304       20.1751      13.767197       4.05159
  45     11.42        6.4505        0.1924       19.0179       19.2103      12.759786       2.59372
  44     16.01        6.5016        0.2567       18.0801       18.3368      11.835160       1.69716
  43     22.46        6.5623        0.3438       17.1858       17.5296      10.967270       1.13567
  42     31.51        6.6253        0.4621       16.3448       16.8069      10.181631       0.73289
  41     44.20        6.6720        0.6245       15.5663       16.1908       9.518821       0.44079
  40     62.00        6.6905        0.8447       14.8065       15.6512       8.960717       0.26461
  39     85.78        6.6481        1.1312       14.0925       15.2237       8.575634       0.13669
  38     109.5        6.5661        1.4137       13.5167       14.9303       8.364271       0.07503
  37     133.1        6.4790        1.6730       13.0134       14.6863       8.207370       0.05635
  36     156.8        6.3905        1.9135       12.5564       14.4699       8.079374       0.04539
  35     180.6        6.2903        2.1589       12.1053       14.2642       7.973925       0.03744
  34     202.8        6.1871        2.3861       11.7016       14.0877       7.900601       0.02784
  33     228.4        6.0788        2.6079       11.3112       13.9191       7.840317       0.01989
  32     252.2        5.9686        2.8203       10.9372       13.7576       7.788984       0.01822
  31     276.0        5.8580        3.0211       10.5839       13.6050       7.747052       0.01488
  30     299.8        5.7452        3.2145       10.2424       13.4570       7.711771       0.01252
  29     323.5        5.6318        3.3991        9.9126       13.3118       7.679930       0.01130
  28     347.3        5.5192        3.5732        9.5973       13.1705       7.651228       0.01019
  27     371.1        5.4078        3.7368        9.2967       13.0335       7.625643       0.00908
  26     394.9        5.2947        3.8946        9.0022       12.8967       7.602033       0.00838
  25     418.6        5.1818        4.0439        8.7182       12.7621       7.580247       0.00773
  24     442.4        5.0690        4.1854        8.4437       12.6291       7.560082       0.00716
  23     466.2        4.9558        4.3198        8.1775       12.4973       7.541481       0.00660
  22     489.9        4.8438        4.4455        7.9229       12.3684       7.524519       0.00602
  21     513.7        4.7312        4.5650        7.6749       12.2399       7.508640       0.00564
  20     537.5        4.6197        4.6766        7.4369       12.1135       7.493839       0.00525
  19     561.3        4.5090        4.7810        7.2080       11.9890       7.479996       0.00491
  18     585.0        4.3968        4.8805        6.9831       11.8635       7.466699       0.00472
  17     608.8        4.2858        4.9728        6.7672       11.7400       7.454179       0.00444
  16     632.6        4.1759        5.0584        6.5598       11.6183       7.442373       0.00419
  15     656.4        4.0648        5.1392        6.3565       11.4958       7.431001       0.00404
  14     680.1        3.9547        5.2138        6.1611       11.3749       7.420251       0.00382
  13     703.9        3.8455        5.2824        5.9732       11.2556       7.410078       0.00361
  12     727.7        3.7357        5.3463        5.7897       11.1360       7.400301       0.00347
  11     751.5        3.6251        5.4055        5.6105       11.0160       7.390910       0.00333
  10     775.2        3.5152        5.4594        5.4377       10.8972       7.381999       0.00316
   9     799.0        3.4058        5.5084        5.2710       10.7794       7.373540       0.00300
   8     822.8        2.7905        8.2883        1.8676       10.1560       7.365466       0.00287
   7     846.6        2.1876        8.8841        0.6618        9.5458       7.358202       0.00258
   6     870.4        1.5947        8.7120        0.2345        8.9465       7.351761       0.00229
   5     894.1        1.0094        8.2724        0.0831        8.3555       7.346111       0.00201
   4     917.9        0.9024        8.1628        0.0805        8.2434       7.341013       0.00181
   3     941.7        0.7951        8.0532        0.0780        8.1312       7.336131       0.00173
   2     965.5        0.6883        7.9442        0.0756        8.0198       7.331493       0.00165
   1     989.2        0.5822        7.8359        0.0733        7.9093       7.327086       0.00156
   0    1013.0        0.4765        7.7283        0.0711        7.7994       7.322900       0.00149



 Wavenumbers: 38000. - 50000. cm-1, ATM      1
 LEVEL PRESSURE   UPWARD FLUX   DIFDOWN FLUX  DIRDOWN FLUX  DOWNWARD FLUX   NET FLUX    HEATING RATE
          mb          W/m2          W/m2          W/m2        W/m2          W/m2       degree/day
  60   .000300        0.0069        0.0000        1.7407        1.7407       1.733864       0.00000
  59    0.1000        0.0063        0.0006        1.7198        1.7204       1.714069       1.67562
  58    0.1403        0.0061        0.0008        1.7047        1.7056       1.699408       3.07012
  57    0.1968        0.0059        0.0012        1.6784        1.6796       1.673683       3.84232
  56    0.2760        0.0056        0.0016        1.6341        1.6357       1.630132       4.64062
  55    0.3871        0.0051        0.0021        1.5634        1.5655       1.560405       5.29648
  54    0.5430        0.0046        0.0028        1.4543        1.4571       1.452495       5.84133
  53    0.7617        0.0039        0.0034        1.2861        1.2895       1.285598       6.44019
  52     1.069        0.0031        0.0037        1.0457        1.0495       1.046342       6.58121
  51     1.499        0.0024        0.0037        0.7523        0.7559       0.753565       5.74202
  50     2.102        0.0017        0.0031        0.4664        0.4695       0.467843       3.99478
  49     2.949        0.0012        0.0024        0.2581        0.2604       0.259286       2.07895
  48     4.137        0.0008        0.0017        0.1381        0.1398       0.139011       0.85468
  47     5.803        0.0005        0.0013        0.0728        0.0741       0.073572       0.33150
  46     8.139        0.0003        0.0009        0.0388        0.0397       0.039349       0.12360
  45     11.42        0.0002        0.0006        0.0198        0.0204       0.020194       0.04932
  44     16.01        0.0001        0.0004        0.0090        0.0093       0.009236       0.02011
  43     22.46        0.0000        0.0002        0.0034        0.0036       0.003591       0.00739
  42     31.51        0.0000        0.0001        0.0011        0.0012       0.001179       0.00225
  41     44.20        0.0000        0.0000        0.0003        0.0003       0.000327       0.00057
  40     62.00        0.0000        0.0000        0.0001        0.0001       0.000070       0.00012
  39     85.78        0.0000        0.0000        0.0000        0.0000       0.000012       0.00002
  38     109.5        0.0000        0.0000        0.0000        0.0000       0.000002       0.00000
  37     133.1        0.0000        0.0000        0.0000        0.0000       0.000000       0.00000
  36     156.8        0.0000        0.0000        0.0000        0.0000       0.000000       0.00000
  35     180.6        0.0000        0.0000        0.0000        0.0000       0.000000       0.00000
  34     202.8        0.0000        0.0000        0.0000        0.0000       0.000000       0.00000
  33     228.4        0.0000        0.0000        0.0000        0.0000       0.000000       0.00000
  32     252.2        0.0000        0.0000        0.0000        0.0000       0.000000       0.00000
  31     276.0        0.0000        0.0000        0.0000        0.0000       0.000000       0.00000
  30     299.8        0.0000        0.0000        0.0000        0.0000       0.000000       0.00000
  29     323.5        0.0000        0.0000        0.0000        0.0000       0.000000       0.00000
  28     347.3        0.0000        0.0000        0.0000        0.0000       0.000000       0.00000
  27     371.1        0.0000        0.0000        0.0000        0.0000       0.000000       0.00000
  26     394.9        0.0000        0.0000        0.0000        0.0000       0.000000       0.00000
  25     418.6        0.0000        0.0000        0.0000        0.0000       0.000000       0.00000
  24     442.4        0.0000        0.0000        0.0000        0.0000       0.000000       0.00000
  23     466.2        0.0000        0.0000        0.0000        0.0000       0.000000       0.00000
  22     489.9        0.0000        0.0000        0.0000        0.0000       0.000000       0.00000
  21     513.7        0.0000        0.0000        0.0000        0.0000       0.000000       0.00000
  20     537.5        0.0000        0.0000        0.0000        0.0000       0.000000       0.00000
  19     561.3        0.0000        0.0000        0.0000        0.0000       0.000000       0.00000
  18     585.0        0.0000        0.0000        0.0000        0.0000       0.000000       0.00000
  17     608.8        0.0000        0.0000        0.0000        0.0000       0.000000       0.00000
  16     632.6        0.0000        0.0000        0.0000        0.0000       0.000000       0.00000
  15     656.4        0.0000        0.0000        0.0000        0.0000       0.000000       0.00000
  14     680.1        0.0000        0.0000        0.0000        0.0000       0.000000       0.00000
  13     703.9        0.0000        0.0000        0.0000        0.0000       0.000000       0.00000
  12     727.7        0.0000        0.0000        0.0000        0.0000       0.000000       0.00000
  11     751.5        0.0000        0.0000        0.0000        0.0000       0.000000       0.00000
  10     775.2        0.0000        0.0000        0.0000        0.0000       0.000000       0.00000
   9     799.0        0.0000        0.0000        0.0000        0.0000       0.000000       0.00000
   8     822.8        0.0000        0.0000        0.0000        0.0000       0.000000       0.00000
   7     846.6        0.0000        0.0000        0.0000        0.0000       0.000000       0.00000
   6     870.4        0.0000        0.0000        0.0000        0.0000       0.000000       0.00000
   5     894.1        0.0000        0.0000        0.0000        0.0000       0.000000       0.00000
   4     917.9        0.0000        0.0000        0.0000        0.0000       0.000000       0.00000
   3     941.7        0.0000        0.0000        0.0000        0.0000       0.000000       0.00000
   2     965.5        0.0000        0.0000        0.0000        0.0000       0.000000       0.00000
   1     989.2        0.0000        0.0000        0.0000        0.0000       0.000000       0.00000
   0    1013.0        0.0000        0.0000        0.0000        0.0000       0.000000       0.00000



 Wavenumbers:   820. -  2600. cm-1, ATM      1
 LEVEL PRESSURE   UPWARD FLUX   DIFDOWN FLUX  DIRDOWN FLUX  DOWNWARD FLUX   NET FLUX    HEATING RATE
          mb          W/m2          W/m2          W/m2        W/m2          W/m2       degree/day
  60   .000300        0.1742        0.0000        8.1430        8.1430       7.968740       0.00000
  59    0.1000        0.1742        0.0000        8.1331        8.1331       7.958854       0.83685
  58    0.1403        0.1742        0.0000        8.1309        8.1309       7.956715       0.44784
  57    0.1968        0.1742        0.0000        8.1281        8.1281       7.953875       0.42419
  56    0.2760        0.1742        0.0000        8.1245        8.1245       7.950308       0.38009
  55    0.3871        0.1742        0.0000        8.1201        8.1201       7.945847       0.33884
  54    0.5430        0.1742        0.0000        8.1143        8.1143       7.940092       0.31157
  53    0.7617        0.1742        0.0000        8.1063        8.1063       7.932106       0.30815
  52     1.069        0.1742        0.0000        8.0951        8.0951       7.920858       0.30939
  51     1.499        0.1742        0.0000        8.0799        8.0799       7.905669       0.29789
  50     2.102        0.1742        0.0000        8.0595        8.0595       7.885258       0.28537
  49     2.949        0.1742        0.0000        8.0314        8.0314       7.857120       0.28049
  48     4.137        0.1742        0.0000        7.9935        7.9935       7.819274       0.26894
  47     5.803        0.1742        0.0000        7.9444        7.9444       7.770153       0.24884
  46     8.139        0.1742        0.0000        7.8811        7.8811       7.706877       0.22853
  45     11.42        0.1742        0.0000        7.8004        7.8004       7.626153       0.20783
  44     16.01        0.1742        0.0000        7.7070        7.7070       7.532799       0.17135
  43     22.46        0.1743        0.0000        7.6181        7.6181       7.443827       0.11642
  42     31.51        0.1743        0.0000        7.5468        7.5468       7.372552       0.06649
  41     44.20        0.1743        0.0000        7.4816        7.4816       7.307359       0.04336
  40     62.00        0.1743        0.0000        7.3998        7.3998       7.225537       0.03879
  39     85.78        0.1743        0.0000        7.2958        7.2958       7.121492       0.03693
  38     109.5        0.1743        0.0000        7.1946        7.1946       7.020290       0.03592
  37     133.1        0.1744        0.0000        7.1003        7.1003       6.925901       0.03390
  36     156.8        0.1744        0.0000        7.0126        7.0126       6.838235       0.03109
  35     180.6        0.1744        0.0000        6.9166        6.9166       6.742154       0.03411
  34     202.8        0.1745        0.0000        6.8041        6.8042       6.629687       0.04270
  33     228.4        0.1745        0.0000        6.6630        6.6630       6.488482       0.04659
  32     252.2        0.1746        0.0000        6.4917        6.4917       6.317078       0.06084
  31     276.0        0.1747        0.0000        6.3090        6.3091       6.134376       0.06485
  30     299.8        0.1748        0.0000        6.1153        6.1153       5.940487       0.06882
  29     323.5        0.1750        0.0000        5.9197        5.9197       5.744711       0.06949
  28     347.3        0.1752        0.0000        5.7036        5.7036       5.528349       0.07680
  27     371.1        0.1755        0.0000        5.4648        5.4649       5.289330       0.08484
  26     394.9        0.1759        0.0000        5.2059        5.2060       5.030100       0.09202
  25     418.6        0.1763        0.0000        4.9521        4.9521       4.775813       0.09026
  24     442.4        0.1768        0.0000        4.7233        4.7233       4.546584       0.08137
  23     466.2        0.1773        0.0000        4.5370        4.5370       4.359718       0.06633
  22     489.9        0.1779        0.0000        4.3924        4.3925       4.214566       0.05152
  21     513.7        0.1786        0.0000        4.2764        4.2764       4.097786       0.04145
  20     537.5        0.1795        0.0000        4.1775        4.1776       3.998050       0.03540
  19     561.3        0.1805        0.0000        4.0839        4.0840       3.903461       0.03358
  18     585.0        0.1817        0.0000        3.9882        3.9883       3.806563       0.03439
  17     608.8        0.1831        0.0000        3.8907        3.8907       3.707634       0.03512
  16     632.6        0.1847        0.0000        3.7911        3.7912       3.606461       0.03591
  15     656.4        0.1866        0.0000        3.6867        3.6868       3.500146       0.03774
  14     680.1        0.1889        0.0000        3.5795        3.5795       3.390590       0.03889
  13     703.9        0.1917        0.0000        3.4709        3.4710       3.279244       0.03952
  12     727.7        0.1952        0.0000        3.3598        3.3599       3.164632       0.04068
  11     751.5        0.1998        0.0000        3.2443        3.2443       3.044522       0.04263
  10     775.2        0.2058        0.0000        3.1256        3.1256       2.919810       0.04427
   9     799.0        0.2138        0.0000        3.0033        3.0033       2.789475       0.04626
   8     822.8        0.1318        1.0979        0.8527        1.9506       1.818753       0.34457
   7     846.6        0.0775        1.0121        0.2422        1.2543       1.176762       0.22788
   6     870.4        0.0397        0.7305        0.0688        0.7993       0.759634       0.14806
   5     894.1        0.0102        0.4853        0.0195        0.5048       0.494620       0.09407
   4     917.9        0.0106        0.4616        0.0186        0.4803       0.469690       0.00885
   3     941.7        0.0111        0.4380        0.0178        0.4557       0.444667       0.00888
   2     965.5        0.0117        0.4144        0.0169        0.4313       0.419620       0.00889
   1     989.2        0.0123        0.3910        0.0160        0.4070       0.394624       0.00887
   0    1013.0        0.0132        0.3678        0.0151        0.3830       0.369782       0.00882

  Modules and versions used in this calculation:

       rrtmg_sw.1col.f90:  $Revision$                    rrtmg_sw_init.f90:  $Revision$        
     rrtmgsw_cldprop.f90:  $Revision$                  rrtmgsw_cldprmc.f90:  NOT USED          
     rrtmg_sw_reftra.f90:  $Revision$                  rrtmg_sw_spcvrt.f90:  NOT USED          
     rrtmg_sw_spcvmc.f90:  NOT USED                    rrtmgsw_setcoef.f90:  NOT USED          
     rrtmg_sw_taumol.f90:  $Revision$                  rrtmg_sw_vrtqdr.f90:  NOT USED          
                rrtatm.f:  NOT USED                             util_xxx.f:  NOT USED          
                 extra.f:  NOT USED                       rrtmg_sw_k_g.f90:  $Revision$        

